Frequency Spectrum for Input Signal

Data Shown:    V2-26 (Community)
Display Parameters:   Frequency: 1000Hz (1/24th Octave)   Mer: 180°  Par: 10°

Freq [Hz]	Signal Level [dBSPL]
22.4	55.6
23	56
23.6	56.4
24	57
25	57.5
25.8	58
26.5	58.4
27.2	58.8
28	59.2
29	59.6
30	60.1
30.7	60.6
31.5	61.1
32.5	61.6
33.5	62
34.5	62.4
35.5	62.8
36.5	63.4
37.5	63.9
38.7	64.4
40	64.8
41.2	65.3
42.5	65.8
43.7	66.4
45	66.9
46.2	67.3
47.5	67.8
48.7	68.4
50	69
51.5	69.4
53	69.9
54.5	70.5
56	71.1
58	71.6
60	72.1
61.5	72.7
63	73.2
65	73.7
67	74.3
69	74.9
71	75.4
73	76
75	76.5
77.5	77
80	77.6
82.5	78.1
85	78.6
87.5	79.1
90	79.6
92.5	80.1
95	80.6
97.5	81.1
100	81.5
103	81.9
106	82.3
109	82.7
112	83.1
115	83.4
118	83.8
122	84
125	84.3
128	84.4
132	84.6
136	84.7
140	84.8
145	84.8
150	84.7
155	84.6
160	84.5
165	84.2
170	84
175	83.8
180	83.6
185	83.4
190	83.4
195	83.4
200	83.6
206	83.8
212	84
218	84.2
224	84.4
230	84.4
236	84.3
240	84.1
250	83.8
258	83.4
265	83.1
272	83.1
280	83.4
290	83.9
300	84.4
307	84.9
315	85.3
325	85.5
335	85.5
345	85.3
355	85.1
365	84.7
375	84.4
387	83.9
400	83.5
412	83.1
425	82.9
437	83.1
450	83.5
462	83.9
475	83.9
487	83.5
500	82.8
515	82
530	81.7
545	81.9
560	82.4
580	83.3
600	84.5
615	85.7
630	86.3
650	86.5
670	86.4
690	86.3
710	86
730	85.5
750	84.6
775	83.2
800	82.1
825	81.4
850	80.7
875	80.3
900	81.4
925	82.8
950	83.1
975	82.1
1000	80.4
1030	80.7
1060	82.1
1090	82.2
1120	81.8
1150	81.8
1180	81.8
1220	81.7
1250	81.4
1280	80.4
1320	79.9
1360	80.8
1400	82.1
1450	83.2
1500	83.5
1550	84.2
1600	85.2
1650	85.5
1700	85.4
1750	85.1
1800	85.1
1850	86.4
1900	86
1950	85.1
2000	84.6
2060	84.9
2120	85.4
2180	85.3
2240	85.4
2300	86.3
2360	85.4
2400	83
2500	82.7
2580	82.8
2650	82.6
2720	82.9
2800	83.6
2900	83.4
3000	83.4
3070	83.5
3150	83.4
3250	84.3
3350	84.5
3450	84.5
3550	83.7
3650	83.6
3750	83.2
3870	83.7
4000	84.1
4120	84.3
4250	83.9
4370	83.9
4500	84.5
4620	84.7
4750	83.6
4870	84
5000	84.4
5150	85.2
5300	84.7
5450	83
5600	87.9
5800	88.5
6000	87.8
6150	88.6
6300	90.7
6500	89.3
6700	88.7
6900	90.1
7100	89.7
7300	89.4
7500	89.1
7750	86.7
8000	85.9
8250	85.4
8500	86.3
8750	86.2
9000	88.2
9250	91.7
9500	89.5
9750	87.3
10000	87.7
10300	87.5
10600	87.4
10900	82
11200	80.2
11500	79.2
11800	78.4
12200	79.8
12500	77.4
12800	74.2
13200	62.4
13600	68.1
14000	74.8
14500	77.9
15000	78.7
15500	79.1
16000	73.4
16500	69.8
17000	68.3
17500	64.4
18000	57.8
18500	50
19000	56.1
19500	57
20000	60.8
20600	57.2
21200	54.4
21800	58.1
22400	53.4
