Frequency Spectrum for Input Signal

Data Shown:    V2-26 (Community)
Display Parameters:   Frequency: 1000Hz (1/24th Octave)   Mer: 90°  Par: 90°

Freq [Hz]	Signal Level [dBSPL]
22.4	51.6
23	52
23.6	52.5
24	53.1
25	53.7
25.8	54.3
26.5	54.8
27.2	55.3
28	55.8
29	56.3
30	56.8
30.7	57.4
31.5	58
32.5	58.5
33.5	59
34.5	59.5
35.5	60
36.5	60.7
37.5	61.3
38.7	61.9
40	62.4
41.2	63
42.5	63.6
43.7	64.2
45	64.8
46.2	65.3
47.5	65.8
48.7	66.5
50	67.1
51.5	67.7
53	68.2
54.5	68.9
56	69.4
58	70
60	70.6
61.5	71.2
63	71.7
65	72.2
67	72.8
69	73.4
71	73.9
73	74.5
75	75
77.5	75.5
80	76.1
82.5	76.6
85	77.1
87.5	77.6
90	78
92.5	78.5
95	79
97.5	79.4
100	79.8
103	80.2
106	80.6
109	81
112	81.3
115	81.6
118	81.9
122	82.1
125	82.3
128	82.5
132	82.6
136	82.7
140	82.7
145	82.7
150	82.6
155	82.5
160	82.3
165	82
170	81.8
175	81.5
180	81.3
185	81.1
190	81
195	81.1
200	81.2
206	81.4
212	81.6
218	81.9
224	82
230	82
236	81.9
240	81.6
250	81.2
258	80.7
265	80.2
272	80
280	79.9
290	80
300	80.2
307	80.4
315	80.3
325	80.2
335	79.8
345	79.3
355	78.7
365	78.1
375	77.5
387	76.8
400	76.1
412	75.5
425	75.1
437	75.2
450	75.5
462	75.8
475	75.8
487	75.4
500	74.6
515	73.8
530	73.1
545	72.5
560	71.9
580	71.6
600	71.6
615	71.7
630	71.2
650	70.1
670	68.7
690	67.4
710	66.3
730	65.1
750	62.9
775	58.4
800	56.5
825	63.9
850	67.9
875	68.9
900	68.8
925	67.8
950	68
975	70.8
1000	72.6
1030	74.1
1060	74.6
1090	72.9
1120	70.8
1150	70.5
1180	70.4
1220	68.2
1250	62.2
1280	52.8
1320	59.3
1360	59.3
1400	61.5
1450	65.4
1500	67.4
1550	67.8
1600	67.9
1650	70.1
1700	72.9
1750	75.2
1800	75.2
1850	73.3
1900	70.6
1950	71
2000	71
2060	73.2
2120	74.4
2180	70.4
2240	67.2
2300	68.8
2360	67.9
2400	66.7
2500	64.7
2580	62.4
2650	65
2720	65.8
2800	64.4
2900	59.7
3000	60.5
3070	65.8
3150	65.6
3250	67.8
3350	65.6
3450	67.8
3550	67.9
3650	68.1
3750	66.2
3870	68.1
4000	66.8
4120	66.4
4250	65.6
4370	66.5
4500	62.8
4620	64.3
4750	62.4
4870	62.8
5000	65.3
5150	68.2
5300	66.7
5450	64.5
5600	68.8
5800	70
6000	69.1
6150	69.4
6300	70.6
6500	67.8
6700	67.5
6900	68.8
7100	71.3
7300	70.8
7500	70.7
7750	66.4
8000	66
8250	65.5
8500	65.8
8750	58.9
9000	59.5
9250	69.7
9500	70.8
9750	71
10000	73.3
10300	74.3
10600	73.8
10900	69.2
11200	68
11500	64.2
11800	64.3
12200	68.1
12500	66.9
12800	64.1
13200	54.9
13600	53.2
14000	57.7
14500	58.9
15000	57.9
15500	61.9
16000	57.3
16500	54.1
17000	50.6
17500	52.4
18000	53.6
18500	42.8
19000	39.8
19500	43.3
20000	49.2
20600	54.9
21200	54.2
21800	59.5
22400	53
