Frequency Spectrum for Input Signal

Data Shown:    V2-26 (Community)
Display Parameters:   Frequency: 1000Hz (1/24th Octave)   Mer: 270°  Par: 0°

Freq [Hz]	Signal Level [dBSPL]
22.4	55
23	55.4
23.6	55.8
24	56.4
25	56.9
25.8	57.4
26.5	57.9
27.2	58.3
28	58.7
29	59.1
30	59.6
30.7	60.1
31.5	60.7
32.5	61.2
33.5	61.6
34.5	62
35.5	62.4
36.5	63
37.5	63.6
38.7	64.1
40	64.6
41.2	65
42.5	65.5
43.7	66.1
45	66.6
46.2	67.1
47.5	67.6
48.7	68.2
50	68.8
51.5	69.3
53	69.8
54.5	70.4
56	71
58	71.5
60	72
61.5	72.6
63	73.2
65	73.7
67	74.3
69	74.9
71	75.4
73	76
75	76.5
77.5	77
80	77.6
82.5	78.1
85	78.6
87.5	79.2
90	79.7
92.5	80.2
95	80.6
97.5	81.1
100	81.6
103	82
106	82.4
109	82.8
112	83.2
115	83.5
118	83.8
122	84.1
125	84.3
128	84.5
132	84.7
136	84.8
140	84.8
145	84.8
150	84.8
155	84.7
160	84.5
165	84.3
170	84.1
175	83.9
180	83.6
185	83.5
190	83.4
195	83.5
200	83.6
206	83.8
212	84.1
218	84.3
224	84.4
230	84.5
236	84.4
240	84.1
250	83.8
258	83.5
265	83.2
272	83.2
280	83.4
290	83.9
300	84.5
307	85
315	85.3
325	85.5
335	85.5
345	85.3
355	85
365	84.7
375	84.3
387	83.9
400	83.4
412	83
425	82.9
437	83.1
450	83.6
462	83.9
475	84
487	83.6
500	82.9
515	82.2
530	81.9
545	82
560	82.5
580	83.4
600	84.7
615	85.8
630	86.5
650	86.7
670	86.6
690	86.4
710	86.2
730	85.6
750	84.7
775	83.3
800	82.2
825	81.6
850	80.8
875	80.4
900	81.4
925	82.8
950	83.2
975	82.1
1000	80.4
1030	80.7
1060	82.2
1090	82.3
1120	81.9
1150	81.9
1180	82.1
1220	82.1
1250	81.8
1280	80.7
1320	80.2
1360	81.2
1400	82.5
1450	83.5
1500	83.6
1550	84.2
1600	85.3
1650	85.6
1700	85.5
1750	85.3
1800	85.2
1850	86.4
1900	86.2
1950	85.3
2000	84.4
2060	84.3
2120	85.1
2180	85.1
2240	85
2300	85.9
2360	85.1
2400	82.9
2500	82.5
2580	82.7
2650	82.4
2720	82.7
2800	83.4
2900	83.3
3000	83.3
3070	83.4
3150	83.6
3250	84.5
3350	85.3
3450	85.6
3550	85
3650	85.1
3750	84.6
3870	85.2
4000	85.7
4120	86
4250	85.3
4370	85.3
4500	86.3
4620	86.4
4750	85
4870	85.9
5000	86.4
5150	86.8
5300	85.7
5450	83.2
5600	87.9
5800	88.2
6000	87.4
6150	88.1
6300	89
6500	87.4
6700	86.4
6900	87.2
7100	86.8
7300	86.8
7500	86.2
7750	83.6
8000	85.4
8250	85
8500	85.4
8750	86
9000	88.2
9250	91.1
9500	89
9750	87.7
10000	88.4
10300	88.6
10600	88
10900	82.7
11200	83.4
11500	81.5
11800	79
12200	80.2
12500	78.9
12800	75.7
13200	67.6
13600	69
14000	76.1
14500	80.5
15000	81.5
15500	82.2
16000	77.1
16500	72.1
17000	70.6
17500	68.5
18000	58.6
18500	51.1
19000	59.3
19500	59.8
20000	57.3
20600	57.7
21200	58.3
21800	56.5
22400	56.2
