Frequency Spectrum for Input Signal

Data Shown:    V2-26 (Community)
Display Parameters:   Frequency: 1000Hz (1/24th Octave)   Mer: 90°  Par: 110°

Freq [Hz]	Signal Level [dBSPL]
22.4	50.7
23	51.1
23.6	51.6
24	52.2
25	52.8
25.8	53.4
26.5	54
27.2	54.5
28	55
29	55.5
30	56
30.7	56.6
31.5	57.2
32.5	57.8
33.5	58.3
34.5	58.8
35.5	59.3
36.5	60
37.5	60.7
38.7	61.3
40	61.8
41.2	62.4
42.5	63
43.7	63.7
45	64.3
46.2	64.8
47.5	65.4
48.7	66.1
50	66.7
51.5	67.3
53	67.8
54.5	68.5
56	69.1
58	69.7
60	70.3
61.5	70.9
63	71.5
65	72
67	72.6
69	73.2
71	73.7
73	74.3
75	74.9
77.5	75.4
80	75.9
82.5	76.4
85	77
87.5	77.4
90	77.9
92.5	78.4
95	78.9
97.5	79.3
100	79.7
103	80.1
106	80.5
109	80.8
112	81.2
115	81.5
118	81.8
122	82
125	82.2
128	82.3
132	82.4
136	82.5
140	82.5
145	82.4
150	82.4
155	82.2
160	82
165	81.8
170	81.5
175	81.2
180	81
185	80.8
190	80.7
195	80.7
200	80.9
206	81.1
212	81.3
218	81.5
224	81.6
230	81.6
236	81.5
240	81.2
250	80.8
258	80.3
265	79.8
272	79.5
280	79.5
290	79.6
300	79.8
307	79.9
315	79.8
325	79.6
335	79.2
345	78.6
355	78
365	77.3
375	76.5
387	75.7
400	74.8
412	74
425	73.4
437	73.2
450	73.4
462	73.6
475	73.6
487	73.3
500	72.7
515	72
530	71.5
545	71.1
560	70.7
580	70.5
600	70.8
615	71.1
630	71
650	70.5
670	69.5
690	68.5
710	67.3
730	65.7
750	63.3
775	59.9
800	58.8
825	62.6
850	65.6
875	66
900	65.6
925	65.7
950	68.5
975	71.6
1000	73
1030	74.2
1060	74.7
1090	73
1120	71
1150	70.2
1180	69.5
1220	67.5
1250	62.4
1280	53.5
1320	60.8
1360	63
1400	63.6
1450	65.9
1500	67.9
1550	69.2
1600	70.4
1650	68.9
1700	64.7
1750	65
1800	66.6
1850	66.8
1900	67
1950	67
2000	65.6
2060	66.4
2120	68.5
2180	67.7
2240	65
2300	68.2
2360	67.6
2400	63.3
2500	64
2580	64.1
2650	64.5
2720	63.4
2800	60.4
2900	56.4
3000	59.6
3070	60.3
3150	64.1
3250	63.4
3350	64.7
3450	65.2
3550	64.4
3650	64.2
3750	63.8
3870	62.4
4000	63
4120	64.3
4250	62.6
4370	59.4
4500	62.1
4620	59.4
4750	60.8
4870	63.6
5000	64.1
5150	66
5300	65.6
5450	61.3
5600	65.2
5800	67.1
6000	69
6150	65.4
6300	70
6500	65.4
6700	64.5
6900	67.5
7100	69.1
7300	69.1
7500	69.8
7750	65.1
8000	65.2
8250	64.9
8500	62.4
8750	57.1
9000	55.7
9250	65.6
9500	67.6
9750	67.4
10000	70.1
10300	70.8
10600	69.3
10900	64.5
11200	64.5
11500	60.6
11800	60
12200	64.7
12500	63.8
12800	60.2
13200	51.5
13600	48.7
14000	52.3
14500	54.9
15000	54.3
15500	57.6
16000	53.2
16500	47.6
17000	44.1
17500	46.8
18000	50.4
18500	42
19000	38.2
19500	38.2
20000	50.6
20600	56.4
21200	49.8
21800	58.9
22400	53.2
