Frequency Spectrum for Input Signal

Data Shown:    V2-26 (Community)
Display Parameters:   Frequency: 1000Hz (1/24th Octave)   Mer: 270°  Par: 180°

Freq [Hz]	Signal Level [dBSPL]
22.4	49.7
23	50.1
23.6	50.6
24	51.2
25	51.9
25.8	52.5
26.5	53
27.2	53.6
28	54.1
29	54.6
30	55.1
30.7	55.8
31.5	56.4
32.5	57
33.5	57.5
34.5	58
35.5	58.5
36.5	59.3
37.5	60
38.7	60.7
40	61.3
41.2	61.9
42.5	62.6
43.7	63.3
45	64
46.2	64.5
47.5	65.1
48.7	65.9
50	66.6
51.5	67.2
53	67.8
54.5	68.5
56	69.2
58	69.8
60	70.4
61.5	71.1
63	71.7
65	72.3
67	72.9
69	73.5
71	74.1
73	74.7
75	75.2
77.5	75.8
80	76.3
82.5	76.9
85	77.4
87.5	77.9
90	78.4
92.5	78.9
95	79.3
97.5	79.8
100	80.2
103	80.6
106	81
109	81.3
112	81.6
115	81.9
118	82.2
122	82.4
125	82.6
128	82.7
132	82.8
136	82.9
140	82.9
145	82.8
150	82.7
155	82.5
160	82.3
165	82
170	81.8
175	81.5
180	81.2
185	81
190	80.9
195	80.9
200	81
206	81.2
212	81.4
218	81.6
224	81.8
230	81.8
236	81.7
240	81.5
250	81.1
258	80.7
265	80.4
272	80.3
280	80.4
290	80.7
300	81.1
307	81.4
315	81.6
325	81.6
335	81.4
345	81
355	80.5
365	80
375	79.4
387	78.7
400	77.9
412	77.1
425	76.4
437	76.1
450	76.1
462	76.1
475	76
487	75.7
500	75.3
515	75.2
530	75.4
545	76
560	76.4
580	77
600	77.8
615	78.5
630	78.7
650	78.4
670	77.8
690	77.1
710	76.2
730	75.1
750	73.7
775	72.3
800	71.7
825	72.2
850	72.5
875	72.2
900	72.8
925	73.8
950	74.4
975	74.1
1000	73.1
1030	72.8
1060	72.4
1090	70.3
1120	67.9
1150	67.5
1180	68.5
1220	69.1
1250	69.1
1280	68.1
1320	67.6
1360	68.3
1400	69.5
1450	71
1500	72.1
1550	73.6
1600	75
1650	75.8
1700	75.8
1750	75
1800	74.3
1850	76.6
1900	76.3
1950	73.1
2000	70.1
2060	72.7
2120	73.9
2180	71.5
2240	70.3
2300	72
2360	70.6
2400	66.9
2500	63.1
2580	66
2650	70.7
2720	70.3
2800	69.1
2900	70.1
3000	70.6
3070	72
3150	67.6
3250	68.8
3350	69.1
3450	68
3550	65
3650	63.3
3750	54.7
3870	60.9
4000	61.4
4120	62.2
4250	57.6
4370	62.4
4500	63.2
4620	62.4
4750	64.5
4870	66
5000	66.9
5150	66.6
5300	66.6
5450	57.4
5600	61.7
5800	68.2
6000	68.8
6150	68.1
6300	72.8
6500	69.7
6700	69
6900	70.3
7100	66.3
7300	64.4
7500	63.5
7750	70.1
8000	70.3
8250	65.2
8500	60.8
8750	57.9
9000	58
9250	57.7
9500	57.8
9750	61.5
10000	65.1
10300	61.8
10600	65.4
10900	64.4
11200	64.4
11500	62.3
11800	56.2
12200	55.8
12500	52.7
12800	55.5
13200	48.5
13600	43.3
14000	44.8
14500	44.9
15000	44.4
15500	53.5
16000	53
16500	47.4
17000	39.4
17500	44.2
18000	47.2
18500	40.1
19000	35.3
19500	40.7
20000	51.8
20600	53.8
21200	50.8
21800	52.1
22400	49.9
