Frequency Spectrum for Input Signal

Data Shown:    V2-26 (Community)
Display Parameters:   Frequency: 1000Hz (1/24th Octave)   Mer: 0°  Par: 50°

Freq [Hz]	Signal Level [dBSPL]
22.4	54
23	54.4
23.6	54.8
24	55.4
25	55.9
25.8	56.4
26.5	56.9
27.2	57.4
28	57.8
29	58.2
30	58.7
30.7	59.3
31.5	59.8
32.5	60.3
33.5	60.8
34.5	61.2
35.5	61.7
36.5	62.3
37.5	62.8
38.7	63.4
40	63.8
41.2	64.3
42.5	64.8
43.7	65.4
45	66
46.2	66.5
47.5	67
48.7	67.6
50	68.2
51.5	68.7
53	69.2
54.5	69.8
56	70.4
58	70.9
60	71.4
61.5	72
63	72.5
65	73
67	73.6
69	74.2
71	74.7
73	75.3
75	75.8
77.5	76.3
80	76.9
82.5	77.4
85	77.9
87.5	78.4
90	78.9
92.5	79.4
95	79.9
97.5	80.3
100	80.8
103	81.2
106	81.6
109	82
112	82.3
115	82.7
118	83
122	83.2
125	83.5
128	83.7
132	83.8
136	83.9
140	84
145	84
150	84
155	83.9
160	83.7
165	83.5
170	83.3
175	83.1
180	82.9
185	82.7
190	82.6
195	82.7
200	82.9
206	83.1
212	83.3
218	83.5
224	83.7
230	83.7
236	83.5
240	83.2
250	82.8
258	82.4
265	82.1
272	82
280	82.2
290	82.6
300	83.1
307	83.6
315	84
325	84.3
335	84.3
345	84.2
355	84
365	83.8
375	83.4
387	83.1
400	82.6
412	82.3
425	82.1
437	82.2
450	82.6
462	82.8
475	82.7
487	82.1
500	81.3
515	80.5
530	80.2
545	80.4
560	80.8
580	81.6
600	82.5
615	83.2
630	83.5
650	83.2
670	82.7
690	82.1
710	81.5
730	80.8
750	79.8
775	78.7
800	78.2
825	78.6
850	78.9
875	78.7
900	79.4
925	80.3
950	80.4
975	79.5
1000	78
1030	78
1060	78.8
1090	78.5
1120	77.8
1150	77.3
1180	76.5
1220	75.9
1250	75.5
1280	74.8
1320	74.8
1360	75.9
1400	77.4
1450	79
1500	79.8
1550	80.8
1600	82
1650	82.4
1700	82.2
1750	82.2
1800	82.3
1850	83.7
1900	83.9
1950	83.7
2000	83.9
2060	84.7
2120	85.1
2180	84
2240	83.5
2300	83.6
2360	81.4
2400	77.9
2500	77.7
2580	77.3
2650	76.6
2720	76.5
2800	75.4
2900	73.9
3000	71.5
3070	69.9
3150	69.6
3250	72
3350	74.4
3450	76.6
3550	77.4
3650	78.4
3750	77.3
3870	77.7
4000	78.3
4120	78.1
4250	76.5
4370	77
4500	77.6
4620	76.3
4750	73.6
4870	73.5
5000	74.8
5150	77.8
5300	78.3
5450	76.7
5600	82.3
5800	82.6
6000	82.2
6150	83.3
6300	84.4
6500	83.1
6700	81.5
6900	82.2
7100	83.4
7300	83.1
7500	82.9
7750	81.2
8000	77.9
8250	75.8
8500	75.2
8750	75.4
9000	80.3
9250	83.3
9500	81.7
9750	80.8
10000	82.4
10300	83.7
10600	84.4
10900	79.6
11200	79
11500	77.1
11800	76.8
12200	76.2
12500	69.2
12800	68.3
13200	65.1
13600	70.1
14000	72.2
14500	74.5
15000	75.8
15500	80.5
16000	77.6
16500	70.9
17000	61.3
17500	69
18000	68.8
18500	58.4
19000	57.1
19500	52.1
20000	61.8
20600	65.7
21200	56.5
21800	53.2
22400	51.2
