"Directivity Index"			
"Sound Power DI"		"Early Reflections DI"	
"Frequency [Hz]"	"[dB] Directivity Index "	"Frequency [Hz]"	"[dB] Directivity Index "
20.5078	1.67603	20.5078	0.883666
21.9727	-4.28229	21.9727	-1.65004
23.4375	-9.71983	23.4375	-4.86237
24.9023	-2.45545	24.9023	-0.66289
26.3672	-2.10205	26.3672	-0.367826
27.832	-2.33803	27.832	-0.529646
29.2969	-3.23318	29.2969	-1.14997
30.7617	-2.70551	30.7617	-0.914305
32.2266	-2.23981	32.2266	-0.698381
33.6914	-2.38098	33.6914	-0.824872
35.1562	-2.45304	35.1562	-0.910717
36.6211	-1.83776	36.6211	-0.641622
38.0859	-1.68469	38.0859	-0.592964
39.5508	-1.50204	39.5508	-0.52085
41.0156	-1.31015	41.0156	-0.450139
42.4805	-1.20013	42.4805	-0.410276
43.9453	-1.08565	43.9453	-0.372151
45.4102	-0.990872	45.4102	-0.337712
46.875	-0.908229	46.875	-0.309803
48.3398	-0.822752	48.3398	-0.280903
51.2695	-0.698003	51.2695	-0.240735
52.7344	-0.649281	52.7344	-0.224902
54.1992	-0.607283	54.1992	-0.212879
55.6641	-0.562135	55.6641	-0.198243
58.5938	-0.471612	58.5938	-0.168494
60.0586	-0.430079	60.0586	-0.154907
62.9883	-0.358596	62.9883	-0.131441
64.4531	-0.343898	64.4531	-0.127544
67.3828	-0.309583	67.3828	-0.118157
68.8477	-0.28492	68.8477	-0.110037
71.7773	-0.251456	71.7773	-0.100367
74.707	-0.213206	74.707	-0.0876394
77.6367	-0.192586	77.6367	-0.082951
79.1016	-0.171452	79.1016	-0.0758258
82.0312	-0.15521	82.0312	-0.0704215
84.9609	-0.188322	84.9609	-0.0832074
87.8906	-0.196231	87.8906	-0.0945077
90.8203	-0.00251904	90.8203	-0.0152734
95.2148	-0.0557217	95.2148	-0.0369498
98.1445	-0.037134	98.1445	-0.0310075
101.074	-0.136844	101.074	-0.069895
105.469	-0.00275235	105.469	-0.0152437
108.398	-0.0472286	108.398	-0.0329115
112.793	0.0806879	112.793	0.0148352
117.188	0.164606	117.188	0.0527028
120.117	0.139979	120.117	0.0442444
124.512	0.105373	124.512	0.0305759
128.906	0.0797843	128.906	0.0170458
133.301	0.079635	133.301	0.0159756
139.16	0.0694046	139.16	0.0130669
143.555	0.100103	143.555	0.0303191
147.949	0.178421	147.949	0.0650729
153.809	0.167709	153.809	0.0655292
159.668	0.204567	159.668	0.0773704
165.527	0.183184	165.527	0.0691048
171.387	0.179255	171.387	0.0725991
177.246	0.232335	177.246	0.09395
183.105	0.213477	183.105	0.0988758
188.965	0.305994	188.965	0.140623
196.289	0.389502	196.289	0.169881
203.613	0.436	203.613	0.191005
210.938	0.456537	210.938	0.20466
218.262	0.491186	218.262	0.208871
225.586	0.40722	225.586	0.170086
232.91	0.497356	232.91	0.205686
241.699	0.438471	241.699	0.207087
250.488	0.57105	250.488	0.275521
259.277	0.71383	259.277	0.363105
268.066	0.715539	268.066	0.389459
276.855	0.782964	276.855	0.349544
287.109	0.739555	287.109	0.376846
297.363	0.959905	297.363	0.496192
307.617	0.808899	307.617	0.304889
319.336	1.06219	319.336	0.565827
329.59	1.10054	329.59	0.515066
341.309	1.15895	341.309	0.616542
353.027	1.43205	353.027	0.685448
366.211	1.29167	366.211	0.646036
379.395	1.65198	379.395	0.785065
392.578	1.71075	392.578	0.793968
405.762	1.71377	405.762	0.828249
420.41	2.03161	420.41	0.958029
435.059	1.80072	435.059	0.817388
451.172	2.47313	451.172	1.09501
465.82	2.40324	465.82	1.04136
483.398	2.61301	483.398	1.13418
499.512	2.72473	499.512	1.14281
517.09	2.88581	517.09	1.15635
536.133	2.8428	536.133	1.14463
555.176	3.13849	555.176	1.21795
574.219	3.33524	574.219	1.24731
594.727	3.33492	594.727	1.23877
615.234	3.42201	615.234	1.15565
637.207	3.28632	637.207	1.03041
659.18	3.0933	659.18	0.943052
682.617	3.14779	682.617	1.01066
707.52	2.90085	707.52	0.742832
732.422	2.69626	732.422	0.706192
757.324	2.35028	757.324	0.449514
785.156	1.81017	785.156	0.24263
811.523	2.13566	811.523	0.824162
840.82	2.86134	840.82	1.54395
870.117	3.62953	870.117	1.7751
900.879	3.93249	900.879	1.62621
933.105	3.93358	933.105	1.59321
965.332	4.09153	965.332	1.57881
1,000.49	3.82343	1,000.49	1.3174
1,035.64	4.30724	1,035.64	1.70207
1,072.27	4.32113	1,072.27	1.74346
1,108.89	4.30856	1,108.89	1.66243
1,148.44	4.55768	1,148.44	1.90874
1,189.45	4.62572	1,189.45	1.89507
1,230.47	4.86548	1,230.47	2.10382
1,274.41	5.24138	1,274.41	2.2014
1,319.82	5.28346	1,319.82	2.25172
1,366.7	5.14477	1,366.7	2.04638
1,413.57	5.54667	1,413.57	2.25554
1,463.38	5.104	1,463.38	2.01627
1,516.11	4.77926	1,516.11	1.89175
1,568.85	4.56756	1,568.85	1.91563
1,624.51	5.15803	1,624.51	2.24773
1,681.64	5.43898	1,681.64	2.64456
1,741.7	5.43451	1,741.7	2.271
1,803.22	5.23245	1,803.22	2.41943
1,866.21	5.03428	1,866.21	2.24055
1,932.13	5.24971	1,932.13	2.26947
1,999.51	5.73455	1,999.51	2.37038
2,069.82	6.40917	2,069.82	2.65892
2,143.07	6.56995	2,143.07	2.7685
2,219.24	6.49297	2,219.24	2.67623
2,296.88	6.35287	2,296.88	2.60051
2,378.91	6.91925	2,378.91	2.84237
2,462.4	7.84795	2,462.4	3.31198
2,548.83	8.05469	2,548.83	3.45566
2,639.65	8.12461	2,639.65	3.52925
2,731.93	8.03075	2,731.93	3.4234
2,828.61	8.20638	2,828.61	3.57557
2,928.22	8.28059	2,928.22	3.68239
3,030.76	8.20042	3,030.76	3.6518
3,137.7	7.73535	3,137.7	3.45462
3,249.02	7.56586	3,249.02	3.37137
3,363.28	7.47127	3,363.28	3.22568
3,481.93	7.20561	3,481.93	3.08636
3,604.98	6.74358	3,604.98	2.78674
3,732.42	6.8943	3,732.42	2.95467
3,864.26	6.26686	3,864.26	2.70677
4,000.49	6.0295	4,000.49	2.39688
4,141.11	6.50032	4,141.11	2.68849
4,287.6	6.3234	4,287.6	2.86469
4,438.48	6.15904	4,438.48	2.70333
4,595.21	6.35438	4,595.21	2.96003
4,756.35	6.76519	4,756.35	3.04172
4,924.8	6.94777	4,924.8	2.93793
5,097.66	6.64756	5,097.66	2.76007
5,277.83	7.07367	5,277.83	2.92157
5,463.87	7.26533	5,463.87	3.01925
5,657.23	7.50154	5,657.23	3.19424
5,856.45	7.27662	5,856.45	3.15108
6,062.99	7.86177	6,062.99	3.41979
6,276.86	7.90618	6,276.86	3.44378
6,498.05	7.95075	6,498.05	3.49005
6,726.56	8.11905	6,726.56	3.52096
6,963.87	8.30688	6,963.87	3.73903
7,209.96	8.3996	7,209.96	3.70191
7,464.84	8.55845	7,464.84	3.77694
7,727.05	8.49514	7,727.05	3.78312
7,999.51	8.20936	7,999.51	3.60019
8,282.23	8.35991	8,282.23	3.70692
8,573.73	8.43212	8,573.73	3.65281
8,876.95	8.25657	8,876.95	3.51882
9,188.96	8.07641	9,188.96	3.34996
9,514.16	7.95011	9,514.16	3.27275
9,849.61	7.79523	9,849.61	3.17275
10,196.8	7.69052	10,196.8	3.11823
10,555.7	7.53991	10,555.7	3.06017
10,927.7	7.43119	10,927.7	2.98018
11,313	7.49043	11,313	3.0295
11,712.9	7.34957	11,712.9	2.94907
12,126	7.14224	12,126	2.73617
12,553.7	7.19996	12,553.7	2.79484
12,996.1	7.40141	12,996.1	2.92982
13,454.6	7.364	13,454.6	2.92026
13,929.2	7.57348	13,929.2	3.07646
14,419.9	7.84794	14,419.9	3.22736
14,928.2	8.13723	14,928.2	3.39915
15,455.6	8.20653	15,455.6	3.45623
16,000.5	8.25344	16,000.5	3.54363
16,564.5	8.1467	16,564.5	3.57926
17,148.9	7.87661	17,148.9	3.41035
17,752.4	7.79416	17,752.4	3.38109
18,379.4	7.57204	18,379.4	3.21939
19,026.9	7.54464	19,026.9	3.17886
19,697.8	7.67972	19,697.8	3.27604
19,999.5	7.64527	19,999.5	3.25151
