"Directivity Index"
"Sound Power DI"		"Early Reflections DI"
"Frequency [Hz]"	"[dB] Directivity Index "	"Frequency [Hz]"	"[dB] Directivity Index "
20.5078	-0.750404	20.5078	-0.331992
21.2402	-0.533297	21.2402	-0.218913
21.9727	-0.34506	21.9727	-0.122234
22.7051	-0.937682	22.7051	-0.411225
23.4375	0.303032	23.4375	0.199442
24.1699	0.105331	24.1699	0.0831885
25.6348	3.01373	25.6348	1.21677
26.3672	0.455312	26.3672	0.267238
27.0996	1.02272	27.0996	0.491966
27.832	1.85205	27.832	0.813608
29.2969	2.73219	29.2969	1.29614
30.0293	0.440054	30.0293	0.395848
31.4941	1.07677	31.4941	0.625818
32.2266	0.974774	32.2266	0.625454
33.6914	-0.797835	33.6914	-0.0544669
34.4238	-1.1157	34.4238	-0.256978
35.8887	-1.33039	35.8887	-0.403983
37.3535	-1.05124	37.3535	-0.276152
38.8184	-1.2972	38.8184	-0.360317
39.5508	-1.65631	39.5508	-0.557777
41.0156	-1.70968	41.0156	-0.627027
42.4805	-1.36612	42.4805	-0.461573
43.9453	-1.20121	43.9453	-0.366689
45.4102	-1.40601	45.4102	-0.483514
47.6074	-0.818952	47.6074	-0.230994
49.0723	-0.691986	49.0723	-0.15327
50.5371	-0.544093	50.5371	-0.08463
52.7344	-0.676808	52.7344	-0.154167
54.1992	-0.673693	54.1992	-0.167085
56.3965	-0.602485	56.3965	-0.152882
58.5938	-0.493917	58.5938	-0.116082
60.0586	-0.431493	60.0586	-0.0955544
62.2559	-0.442429	62.2559	-0.111431
64.4531	-0.374309	64.4531	-0.0918079
66.6504	-0.334512	66.6504	-0.0826691
69.5801	-0.329924	69.5801	-0.0921648
71.7773	-0.301157	71.7773	-0.0891847
73.9746	-0.279124	73.9746	-0.0866176
76.9043	-0.272718	76.9043	-0.0929624
79.834	-0.273534	79.834	-0.10181
82.7637	-0.273104	82.7637	-0.109112
85.6934	-0.274426	85.6934	-0.115155
88.623	-0.28052	88.623	-0.121756
91.5527	-0.248647	91.5527	-0.110614
94.4824	-0.233456	94.4824	-0.107754
98.1445	-0.229258	98.1445	-0.110644
101.807	-0.221059	101.807	-0.111047
105.469	-0.195605	105.469	-0.10298
109.131	-0.209362	109.131	-0.111483
112.793	-0.225018	112.793	-0.12111
116.455	-0.210802	116.455	-0.116447
120.85	-0.194322	120.85	-0.110664
125.244	-0.17609	125.244	-0.102633
129.639	-0.137823	129.639	-0.0858645
134.033	-0.0863185	134.033	-0.0646482
138.428	-0.136912	138.428	-0.0900973
143.555	-0.12658	143.555	-0.0840143
148.682	-0.110175	148.682	-0.0759351
153.809	-0.0351218	153.809	-0.0442221
159.668	-0.0408572	159.668	-0.0478891
164.795	-0.0362231	164.795	-0.0401581
170.654	0.033151	170.654	-0.0125297
176.514	-0.00195344	176.514	-0.02824
183.105	-0.0197807	183.105	-0.0353838
189.697	0.0291137	189.697	-0.0109916
196.289	-0.00859642	196.289	-0.0231928
202.881	-0.0128828	202.881	-0.0167929
210.205	0.259093	210.205	0.105717
217.529	0.250809	217.529	0.0943279
225.586	0.20258	225.586	0.0831788
232.91	0.387836	232.91	0.170366
241.699	0.406334	241.699	0.171717
249.756	0.558479	249.756	0.247983
258.545	0.637208	258.545	0.286131
268.066	0.42861	268.066	0.210083
277.588	0.77213	277.588	0.400828
287.109	0.779912	287.109	0.419823
297.363	1.0524	297.363	0.514685
307.617	0.747901	307.617	0.38323
318.604	1.15447	318.604	0.529955
329.59	1.15461	329.59	0.501999
341.309	1.0553	341.309	0.508906
353.76	1.59441	353.76	0.779331
366.211	1.40617	366.211	0.69541
378.662	1.64363	378.662	0.794274
392.578	1.54679	392.578	0.746861
405.762	1.71757	405.762	0.808803
420.41	1.77946	420.41	0.853985
435.059	1.93854	435.059	0.893141
450.439	1.99716	450.439	0.905929
466.553	2.04611	466.553	0.942585
482.666	2.26244	482.666	1.02553
500.244	2.32004	500.244	1.00026
517.822	2.25757	517.822	0.981618
536.133	2.24018	536.133	0.955528
554.443	2.25551	554.443	0.935735
574.219	1.89305	574.219	0.78478
594.727	1.67069	594.727	0.648249
615.234	1.47098	615.234	0.671722
637.207	2.57691	637.207	1.0941
659.912	2.79842	659.912	1.14431
683.35	2.91367	683.35	1.19541
706.787	3.4078	706.787	1.39232
731.689	3.21212	731.689	1.23429
758.057	3.11336	758.057	1.18412
784.424	3.1996	784.424	1.19751
812.256	3.25845	812.256	1.3237
840.82	3.10055	840.82	1.15006
870.85	3.26342	870.85	1.28155
901.611	3.28776	901.611	1.27373
933.105	3.86026	933.105	1.65463
966.064	3.78226	966.064	1.4948
999.756	3.94471	999.756	1.73439
1034.91	4.26326	1034.91	2.02165
1071.53	4.36288	1071.53	1.88723
1109.62	4.80845	1109.62	2.06729
1148.44	4.89356	1148.44	2.21405
1189.45	5.00987	1189.45	2.23884
1231.2	4.78612	1231.2	2.07459
1274.41	4.85386	1274.41	2.02636
1319.82	4.59779	1319.82	2.29424
1365.97	3.88318	1365.97	1.25587
1414.31	4.65268	1414.31	1.62147
1464.11	5.06668	1464.11	1.81086
1515.38	5.30089	1515.38	2.01657
1568.85	5.46492	1568.85	2.20506
1624.51	6.22513	1624.51	2.74475
1681.64	6.14352	1681.64	2.78263
1740.97	6.41328	1740.97	3.15246
1802.49	5.91247	1802.49	2.67734
1866.21	5.56272	1866.21	2.42615
1932.13	5.33193	1932.13	2.33939
2000.24	5.26179	2000.24	2.43171
2070.56	6.1353	2070.56	3.18495
2143.8	6.4842	2143.8	3.20577
2219.24	6.47214	2219.24	2.87798
2297.61	6.89969	2297.61	3.36929
2378.17	7.29885	2378.17	3.85352
2462.4	7.14396	2462.4	3.827
2548.83	7.32382	2548.83	3.98759
2638.92	7.49384	2638.92	4.2251
2731.93	7.33865	2731.93	4.32586
2828.61	7.48718	2828.61	4.47211
2928.22	7.56282	2928.22	4.51514
3031.49	7.29849	3031.49	4.45146
3138.43	7.05537	3138.43	4.26632
3249.02	7.11275	3249.02	4.24843
3363.28	7.04966	3363.28	4.2628
3481.93	6.70049	3481.93	4.11542
3604.98	6.35868	3604.98	3.92666
3732.42	6.54618	3732.42	4.14631
3863.53	6.37015	3863.53	3.95255
3999.76	6.67158	3999.76	4.03645
4141.11	6.54152	4141.11	3.93771
4286.87	6.57879	4286.87	3.94317
4438.48	6.55178	4438.48	3.95371
4594.48	6.61208	4594.48	4.0373
4757.08	6.50903	4757.08	3.81597
4924.8	6.4568	4924.8	3.5745
5098.39	6.49722	5098.39	3.52686
5277.83	6.60929	5277.83	3.48835
5463.87	7.02515	5463.87	3.71445
5656.49	7.17914	5656.49	3.75903
5856.45	7.30243	5856.45	3.78763
6062.99	7.65979	6062.99	3.95819
6276.86	7.94726	6276.86	4.15204
6498.05	8.19184	6498.05	4.26918
6727.29	8.2844	6727.29	4.22591
6964.6	8.05016	6964.6	4.11965
7209.96	7.68123	7209.96	4.00971
7464.11	8.04834	7464.11	4.05946
7727.78	7.84895	7727.78	3.84734
8000.24	7.53231	8000.24	3.80147
8282.23	7.91818	8282.23	3.8275
8574.46	8.91179	8574.46	4.20796
8876.22	9.13074	8876.22	4.39848
9189.7	8.98493	9189.7	4.48013
9513.43	8.79319	9513.43	4.55129
9848.88	8.37281	9848.88	4.58379
10196.8	8.15009	10196.8	4.43264
10556.4	8.15317	10556.4	4.31808
10928.5	8.28073	10928.5	4.34557
11313.7	8.66761	11313.7	4.51403
11712.9	8.89612	11712.9	4.78157
12126	8.69563	12126	5.25301
12553.7	8.48401	12553.7	4.83335
12996.1	7.96018	12996.1	4.12459
13454.6	6.88039	13454.6	3.11648
13928.5	5.50514	13928.5	1.95062
14419.9	5.47229	14419.9	1.77857
14928.2	6.98388	14928.2	2.98633
15454.8	8.17188	15454.8	3.90778
15999.8	8.77108	15999.8	4.34661
16564.5	9.13042	16564.5	4.57612
17148.2	9.52831	17148.2	4.62677
17753.2	9.96552	17753.2	4.56523
18379.4	10.4654	18379.4	4.87214
19027.6	10.8279	19027.6	5.18863
19698.5	10.9401	19698.5	5.06144
19999.5	11.0352	19999.5	5.00178
