"SPL Horizontal"																																																																							
"On-Axis"		"10°"		"-10°"		"20°"		"-20°"		"30°"		"-30°"		"40°"		"-40°"		"50°"		"-50°"		"60°"		"-60°"		"70°"		"-70°"		"80°"		"-80°"		"90°"		"-90°"		"100°"		"-100°"		"110°"		"-110°"		"120°"		"-120°"		"130°"		"-130°"		"140°"		"-140°"		"150°"		"-150°"		"160°"		"-160°"		"170°"		"-170°"		"180°"	
"Frequency [Hz]"	"Sound Pessure Level [dB]   [0.3V at 1m]"	"Frequency [Hz]"	"Sound Pessure Level [dB]   [0.3V at 1m]"	"Frequency [Hz]"	"Sound Pessure Level [dB]   [0.3V at 1m]"	"Frequency [Hz]"	"Sound Pessure Level [dB]   [0.3V at 1m]"	"Frequency [Hz]"	"Sound Pessure Level [dB]   [0.3V at 1m]"	"Frequency [Hz]"	"Sound Pessure Level [dB]   [0.3V at 1m]"	"Frequency [Hz]"	"Sound Pessure Level [dB]   [0.3V at 1m]"	"Frequency [Hz]"	"Sound Pessure Level [dB]   [0.3V at 1m]"	"Frequency [Hz]"	"Sound Pessure Level [dB]   [0.3V at 1m]"	"Frequency [Hz]"	"Sound Pessure Level [dB]   [0.3V at 1m]"	"Frequency [Hz]"	"Sound Pessure Level [dB]   [0.3V at 1m]"	"Frequency [Hz]"	"Sound Pessure Level [dB]   [0.3V at 1m]"	"Frequency [Hz]"	"Sound Pessure Level [dB]   [0.3V at 1m]"	"Frequency [Hz]"	"Sound Pessure Level [dB]   [0.3V at 1m]"	"Frequency [Hz]"	"Sound Pessure Level [dB]   [0.3V at 1m]"	"Frequency [Hz]"	"Sound Pessure Level [dB]   [0.3V at 1m]"	"Frequency [Hz]"	"Sound Pessure Level [dB]   [0.3V at 1m]"	"Frequency [Hz]"	"Sound Pessure Level [dB]   [0.3V at 1m]"	"Frequency [Hz]"	"Sound Pessure Level [dB]   [0.3V at 1m]"	"Frequency [Hz]"	"Sound Pessure Level [dB]   [0.3V at 1m]"	"Frequency [Hz]"	"Sound Pessure Level [dB]   [0.3V at 1m]"	"Frequency [Hz]"	"Sound Pessure Level [dB]   [0.3V at 1m]"	"Frequency [Hz]"	"Sound Pessure Level [dB]   [0.3V at 1m]"	"Frequency [Hz]"	"Sound Pessure Level [dB]   [0.3V at 1m]"	"Frequency [Hz]"	"Sound Pessure Level [dB]   [0.3V at 1m]"	"Frequency [Hz]"	"Sound Pessure Level [dB]   [0.3V at 1m]"	"Frequency [Hz]"	"Sound Pessure Level [dB]   [0.3V at 1m]"	"Frequency [Hz]"	"Sound Pessure Level [dB]   [0.3V at 1m]"	"Frequency [Hz]"	"Sound Pessure Level [dB]   [0.3V at 1m]"	"Frequency [Hz]"	"Sound Pessure Level [dB]   [0.3V at 1m]"	"Frequency [Hz]"	"Sound Pessure Level [dB]   [0.3V at 1m]"	"Frequency [Hz]"	"Sound Pessure Level [dB]   [0.3V at 1m]"	"Frequency [Hz]"	"Sound Pessure Level [dB]   [0.3V at 1m]"	"Frequency [Hz]"	"Sound Pessure Level [dB]   [0.3V at 1m]"	"Frequency [Hz]"	"Sound Pessure Level [dB]   [0.3V at 1m]"	"Frequency [Hz]"	"Sound Pessure Level [dB]   [0.3V at 1m]"
20.5078	36.1174	20.5078	36.1223	20.5078	36.1226	20.5078	36.1378	20.5078	36.1384	20.5078	36.1652	20.5078	36.1658	20.5078	36.2062	20.5078	36.2068	20.5078	36.2629	20.5078	36.2641	20.5078	36.3378	20.5078	36.3405	20.5078	36.433	20.5078	36.4386	20.5078	36.5498	20.5078	36.5604	20.5078	36.6887	20.5078	36.7057	20.5078	36.848	20.5078	36.8723	20.5078	37.0237	20.5078	37.055	20.5078	37.2094	20.5078	37.2459	20.5078	37.3958	20.5078	37.4346	20.5078	37.572	20.5078	37.6095	20.5078	37.7265	20.5078	37.7588	20.5078	37.8482	20.5078	37.8718	20.5078	37.9279	20.5078	37.9404	20.5078	37.9596
21.2402	40.7577	21.2402	40.8102	21.2402	40.7125	21.2402	40.8686	21.2402	40.6764	21.2402	40.9323	21.2402	40.6519	21.2402	41.001	21.2402	40.6417	21.2402	41.0749	21.2402	40.649	21.2402	41.1544	21.2402	40.6768	21.2402	41.2399	21.2402	40.7281	21.2402	41.332	21.2402	40.8045	21.2402	41.4303	21.2402	40.9064	21.2402	41.5341	21.2402	41.032	21.2402	41.641	21.2402	41.1772	21.2402	41.7477	21.2402	41.3355	21.2402	41.8492	21.2402	41.4983	21.2402	41.9395	21.2402	41.656	21.2402	42.0118	21.2402	41.7986	21.2402	42.0593	21.2402	41.9175	21.2402	42.0765	21.2402	42.0057	21.2402	42.0591
21.9727	41.2447	21.9727	41.263	21.9727	41.2344	21.9727	41.2885	21.9727	41.2324	21.9727	41.3207	21.9727	41.239	21.9727	41.3585	21.9727	41.2543	21.9727	41.401	21.9727	41.2785	21.9727	41.4473	21.9727	41.3113	21.9727	41.4966	21.9727	41.3526	21.9727	41.5479	21.9727	41.402	21.9727	41.6007	21.9727	41.4589	21.9727	41.6542	21.9727	41.522	21.9727	41.7076	21.9727	41.5897	21.9727	41.7599	21.9727	41.6594	21.9727	41.8095	21.9727	41.728	21.9727	41.8544	21.9727	41.7921	21.9727	41.8923	21.9727	41.8479	21.9727	41.9203	21.9727	41.8921	21.9727	41.9358	21.9727	41.9223	21.9727	41.9368
22.7051	30.5515	22.7051	30.2542	22.7051	30.866	22.7051	29.9824	22.7051	31.1899	22.7051	29.7448	22.7051	31.5154	22.7051	29.5505	22.7051	31.8351	22.7051	29.4085	22.7051	32.1416	22.7051	29.3271	22.7051	32.4272	22.7051	29.3126	22.7051	32.6845	22.7051	29.3691	22.7051	32.9062	22.7051	29.4968	22.7051	33.0855	22.7051	29.6916	22.7051	33.2167	22.7051	29.9457	22.7051	33.2949	22.7051	30.2478	22.7051	33.3173	22.7051	30.5843	22.7051	33.2825	22.7051	30.9414	22.7051	33.191	22.7051	31.3052	22.7051	33.0449	22.7051	31.6635	22.7051	32.848	22.7051	32.0055	22.7051	32.6051	22.7051	32.322
23.4375	32.1228	23.4375	31.985	23.4375	32.236	23.4375	31.8248	23.4375	32.3241	23.4375	31.6457	23.4375	32.3875	23.4375	31.4533	23.4375	32.4276	23.4375	31.2561	23.4375	32.4464	23.4375	31.0655	23.4375	32.4469	23.4375	30.8959	23.4375	32.4328	23.4375	30.764	23.4375	32.4085	23.4375	30.6867	23.4375	32.3786	23.4375	30.6773	23.4375	32.3477	23.4375	30.7415	23.4375	32.3198	23.4375	30.8748	23.4375	32.2973	23.4375	31.0621	23.4375	32.2797	23.4375	31.2809	23.4375	32.2632	23.4375	31.5068	23.4375	32.2407	23.4375	31.7176	23.4375	32.2025	23.4375	31.8974	23.4375	32.1379	23.4375	32.0379
24.1699	40.8089	24.1699	40.779	24.1699	40.8322	24.1699	40.7427	24.1699	40.8486	24.1699	40.7009	24.1699	40.8585	24.1699	40.6548	24.1699	40.8622	24.1699	40.606	24.1699	40.8604	24.1699	40.5567	24.1699	40.854	24.1699	40.5094	24.1699	40.8439	24.1699	40.4672	24.1699	40.8312	24.1699	40.4331	24.1699	40.8169	24.1699	40.4101	24.1699	40.8019	24.1699	40.4005	24.1699	40.7867	24.1699	40.4054	24.1699	40.7715	24.1699	40.4246	24.1699	40.7559	24.1699	40.4559	24.1699	40.7388	24.1699	40.496	24.1699	40.7188	24.1699	40.5406	24.1699	40.6943	24.1699	40.5857	24.1699	40.664	24.1699	40.6275
25.6348	33.5588	25.6348	33.5167	25.6348	33.5182	25.6348	33.3912	25.6348	33.3942	25.6348	33.181	25.6348	33.1851	25.6348	32.8832	25.6348	32.8881	25.6348	32.4943	25.6348	32.4997	25.6348	32.0098	25.6348	32.0154	25.6348	31.4248	25.6348	31.4304	25.6348	30.7342	25.6348	30.7397	25.6348	29.9343	25.6348	29.9393	25.6348	29.0243	25.6348	29.0277	25.6348	28.0085	25.6348	28.0083	25.6348	26.9013	25.6348	26.894	25.6348	25.7321	25.6348	25.7133	25.6348	24.5525	25.6348	24.5189	25.6348	23.4422	25.6348	23.3953	25.6348	22.5081	25.6348	22.4586	25.6348	21.8699	25.6348	21.8369	25.6348	21.6303
26.3672	37.0566	26.3672	37.0037	26.3672	37.0742	26.3672	36.9163	26.3672	37.0579	26.3672	36.7974	26.3672	37.0107	26.3672	36.6524	26.3672	36.9379	26.3672	36.4899	26.3672	36.8466	26.3672	36.3218	26.3672	36.7466	26.3672	36.1635	26.3672	36.6493	26.3672	36.0333	26.3672	36.5675	26.3672	35.9494	26.3672	36.5135	26.3672	35.9268	26.3672	36.497	26.3672	35.9728	26.3672	36.5224	26.3672	36.0836	26.3672	36.5874	26.3672	36.2447	26.3672	36.6819	26.3672	36.4331	26.3672	36.79	26.3672	36.6231	26.3672	36.8924	26.3672	36.7904	26.3672	36.9698	26.3672	36.9164	26.3672	37.0057	26.3672	36.9893
27.0996	40.5623	27.0996	40.5278	27.0996	40.5587	27.0996	40.456	27.0996	40.5172	27.0996	40.3482	27.0996	40.4389	27.0996	40.207	27.0996	40.3255	27.0996	40.0362	27.0996	40.18	27.0996	39.8414	27.0996	40.0068	27.0996	39.6301	27.0996	39.8119	27.0996	39.4122	27.0996	39.6034	27.0996	39.1991	27.0996	39.3912	27.0996	39.0033	27.0996	39.1866	27.0996	38.8361	27.0996	39.0012	27.0996	38.7061	27.0996	38.8452	27.0996	38.6162	27.0996	38.7249	27.0996	38.5637	27.0996	38.6417	27.0996	38.5405	27.0996	38.5913	27.0996	38.5358	27.0996	38.5649	27.0996	38.5397	27.0996	38.5526	27.0996	38.5457
27.832	39.5791	27.832	39.5451	27.832	39.5528	27.832	39.451	27.832	39.4664	27.832	39.2971	27.832	39.3202	27.832	39.0848	27.832	39.1153	27.832	38.8165	27.832	38.8535	27.832	38.4967	27.832	38.5383	27.832	38.1329	27.832	38.1757	27.832	37.7366	27.832	37.7751	27.832	37.3244	27.832	37.3509	27.832	36.9177	27.832	36.9228	27.832	36.5408	27.832	36.5155	27.832	36.2166	27.832	36.1558	27.832	35.9609	27.832	35.8669	27.832	35.7772	27.832	35.662	27.832	35.6564	27.832	35.54	27.832	35.5807	27.832	35.4862	27.832	35.5318	27.832	35.479	27.832	35.498
29.2969	38.4941	29.2969	38.424	29.2969	38.4431	29.2969	38.2323	29.2969	38.2703	29.2969	37.9174	29.2969	37.9735	29.2969	37.4777	29.2969	37.5499	29.2969	36.9139	29.2969	36.998	29.2969	36.2341	29.2969	36.321	29.2969	35.4623	29.2969	35.5351	29.2969	34.6535	29.2969	34.6826	29.2969	33.9103	29.2969	33.8524	29.2969	33.3815	29.2969	33.1926	29.2969	33.2065	29.2969	32.8745	29.2969	33.4167	29.2969	32.9857	29.2969	33.9032	29.2969	33.4501	29.2969	34.4957	29.2969	34.0871	29.2969	35.0503	29.2969	34.7255	29.2969	35.4758	29.2969	35.2535	29.2969	35.7232	29.2969	35.6109	29.2969	35.7702
30.0293	40.6152	30.0293	40.5759	30.0293	40.5787	30.0293	40.4635	30.0293	40.4677	30.0293	40.2853	30.0293	40.2874	30.0293	40.0543	30.0293	40.0489	30.0293	39.7924	30.0293	39.7708	30.0293	39.5317	30.0293	39.4823	30.0293	39.3156	30.0293	39.2242	30.0293	39.1935	30.0293	39.0469	30.0293	39.2082	30.0293	38.9999	30.0293	39.3798	30.0293	39.1147	30.0293	39.694	30.0293	39.3898	30.0293	40.1068	30.0293	39.7891	30.0293	40.5595	30.0293	40.2551	30.0293	40.995	30.0293	40.7267	30.0293	41.3667	30.0293	41.1521	30.0293	41.6416	30.0293	41.4924	30.0293	41.7984	30.0293	41.7221	30.0293	41.826
31.4941	43.9909	31.4941	43.9647	31.4941	43.9389	31.4941	43.8613	31.4941	43.8102	31.4941	43.6843	31.4941	43.6087	31.4941	43.4411	31.4941	43.3425	31.4941	43.145	31.4941	43.0253	31.4941	42.8176	31.4941	42.6793	31.4941	42.4914	31.4941	42.3374	31.4941	42.21	31.4941	42.0438	31.4941	42.0228	31.4941	41.8482	31.4941	41.9717	31.4941	41.7932	31.4941	42.0741	31.4941	41.8972	31.4941	42.3125	31.4941	42.1435	31.4941	42.6402	31.4941	42.4858	31.4941	42.9975	31.4941	42.8645	31.4941	43.328	31.4941	43.2224	31.4941	43.5877	31.4941	43.5144	31.4941	43.7468	31.4941	43.7092	31.4941	43.7888
32.2266	44.0508	32.2266	44.0298	32.2266	43.9827	32.2266	43.9206	32.2266	43.8276	32.2266	43.7269	32.2266	43.591	32.2266	43.4575	32.2266	43.2834	32.2266	43.1279	32.2266	42.9237	32.2266	42.7652	32.2266	42.5427	32.2266	42.4109	32.2266	42.1862	32.2266	42.1215	32.2266	41.9137	32.2266	41.9601	32.2266	41.7873	32.2266	41.9762	32.2266	41.8489	32.2266	42.1813	32.2266	42.0991	32.2266	42.5407	32.2266	42.4943	32.2266	42.9881	32.2266	42.965	32.2266	43.4502	32.2266	43.44	32.2266	43.8653	32.2266	43.8611	32.2266	44.189	32.2266	44.1873	32.2266	44.3931	32.2266	44.3925	32.2266	44.4626
33.6914	44.7903	33.6914	44.6644	33.6914	44.8228	33.6914	44.4498	33.6914	44.7657	33.6914	44.1619	33.6914	44.6306	33.6914	43.8317	33.6914	44.4398	33.6914	43.5124	33.6914	44.2285	33.6914	43.2816	33.6914	44.0482	33.6914	43.2299	33.6914	43.963	33.6914	43.4273	33.6914	44.0355	33.6914	43.8842	33.6914	44.3036	33.6914	44.5427	33.6914	44.7602	33.6914	45.3081	33.6914	45.3558	33.6914	46.0881	33.6914	46.0193	33.6914	46.8132	33.6914	46.6814	33.6914	47.4378	33.6914	47.287	33.6914	47.9346	33.6914	47.797	33.6914	48.2882	33.6914	48.1856	33.6914	48.491	33.6914	48.4365	33.6914	48.54
34.4238	46.2794	34.4238	46.1919	34.4238	46.2946	34.4238	46.0401	34.4238	46.2384	34.4238	45.8432	34.4238	46.1212	34.4238	45.6346	34.4238	45.9639	34.4238	45.4632	34.4238	45.8	34.4238	45.3902	34.4238	45.6764	34.4238	45.4756	34.4238	45.649	34.4238	45.7547	34.4238	45.7692	34.4238	46.2206	34.4238	46.065	34.4238	46.8256	34.4238	46.5266	34.4238	47.5014	34.4238	47.1097	34.4238	48.1811	34.4238	47.7524	34.4238	48.8109	34.4238	48.3936	34.4238	49.3527	34.4238	48.9835	34.4238	49.7811	34.4238	49.4856	34.4238	50.0804	34.4238	49.8752	34.4238	50.2413	34.4238	50.1365	34.4238	50.26
35.8887	48.9454	35.8887	48.8921	35.8887	48.942	35.8887	48.7912	35.8887	48.8824	35.8887	48.6621	35.8887	48.7763	35.8887	48.5358	35.8887	48.6442	35.8887	48.4546	35.8887	48.5185	35.8887	48.467	35.8887	48.4427	35.8887	48.6159	35.8887	48.4658	35.8887	48.9232	35.8887	48.63	35.8887	49.3792	35.8887	48.9548	35.8887	49.9453	35.8887	49.427	35.8887	50.5675	35.8887	50.0051	35.8887	51.1914	35.8887	50.6335	35.8887	51.7708	35.8887	51.2576	35.8887	52.2709	35.8887	51.8321	35.8887	52.6668	35.8887	52.3229	35.8887	52.942	35.8887	52.7062	35.8887	53.0863	35.8887	52.9665	35.8887	53.0946
37.3535	51.387	37.3535	51.3419	37.3535	51.3755	37.3535	51.2484	37.3535	51.3073	37.3535	51.124	37.3535	51.191	37.3535	50.9962	37.3535	51.0447	37.3535	50.9025	37.3535	50.8975	37.3535	50.887	37.3535	50.7896	37.3535	50.9909	37.3535	50.7683	37.3535	51.239	37.3535	50.8774	37.3535	51.6289	37.3535	51.1415	37.3535	52.1305	37.3535	51.555	37.3535	52.6961	37.3535	52.0826	37.3535	53.2738	37.3535	52.6718	37.3535	53.8175	37.3535	53.2676	37.3535	54.2907	37.3535	53.8229	37.3535	54.667	37.3535	54.3017	37.3535	54.9284	37.3535	54.6786	37.3535	55.0634	37.3535	54.9368	37.3535	55.0665
38.8184	52.4174	38.8184	52.3758	38.8184	52.3932	38.8184	52.2787	38.8184	52.3031	38.8184	52.147	38.8184	52.1568	38.8184	52.0138	38.8184	51.9762	38.8184	51.9243	38.8184	51.7973	38.8184	51.9309	38.8184	51.6712	38.8184	52.0799	38.8184	51.6575	38.8184	52.3948	38.8184	51.8089	38.8184	52.8645	38.8184	52.1492	38.8184	53.4469	38.8184	52.6607	38.8184	54.0844	38.8184	53.2909	38.8184	54.7203	38.8184	53.9734	38.8184	55.3075	38.8184	54.6464	38.8184	55.8109	38.8184	55.2614	38.8184	56.2063	38.8184	55.7841	38.8184	56.4775	38.8184	56.192	38.8184	56.6147	38.8184	56.4709	38.8184	56.6128
39.5508	53.1726	39.5508	53.1487	39.5508	53.1413	39.5508	53.0802	39.5508	53.0548	39.5508	52.9892	39.5508	52.9244	39.5508	52.9095	39.5508	52.7745	39.5508	52.8853	39.5508	52.6436	39.5508	52.9641	39.5508	52.5831	39.5508	53.1839	39.5508	52.6483	39.5508	53.5581	39.5508	52.8817	39.5508	54.0692	39.5508	53.2941	39.5508	54.6741	39.5508	53.8578	39.5508	55.3192	39.5508	54.5183	39.5508	55.953	39.5508	55.2129	39.5508	56.5335	39.5508	55.886	39.5508	57.029	39.5508	56.4948	39.5508	57.4176	39.5508	57.009	39.5508	57.6842	39.5508	57.4086	39.5508	57.8196	39.5508	57.6809	39.5508	57.8188
41.0156	55.6481	41.0156	55.6443	41.0156	55.6118	41.0156	55.6094	41.0156	55.5365	41.0156	55.5622	41.0156	55.4336	41.0156	55.5312	41.0156	55.3257	41.0156	55.5524	41.0156	55.2472	41.0156	55.6632	41.0156	55.2408	41.0156	55.8929	41.0156	55.3501	41.0156	56.2517	41.0156	55.6055	41.0156	56.7259	41.0156	56.012	41.0156	57.2817	41.0156	56.545	41.0156	57.8749	41.0156	57.1594	41.0156	58.461	41.0156	57.8027	41.0156	59.0019	41.0156	58.4267	41.0156	59.4674	41.0156	58.9926	41.0156	59.8353	41.0156	59.472	41.0156	60.0901	41.0156	59.8449	41.0156	60.2218	41.0156	60.0983	41.0156	60.225
42.4805	58.1289	42.4805	58.1153	42.4805	58.1026	42.4805	58.0688	42.4805	58.0377	42.4805	58.0052	42.4805	57.9444	42.4805	57.949	42.4805	57.8421	42.4805	57.9322	42.4805	57.7602	42.4805	57.99	42.4805	57.7357	42.4805	58.1527	42.4805	57.807	42.4805	58.4363	42.4805	58.0041	42.4805	58.8354	42.4805	58.3367	42.4805	59.3238	42.4805	58.7896	42.4805	59.862	42.4805	59.3268	42.4805	60.407	42.4805	59.9019	42.4805	60.9195	42.4805	60.4693	42.4805	61.3672	42.4805	60.9901	42.4805	61.7259	42.4805	61.4342	42.4805	61.9786	42.4805	61.7802	42.4805	62.1139	42.4805	62.0136	42.4805	62.126
43.9453	59.735	43.9453	59.7135	43.9453	59.7099	43.9453	59.6528	43.9453	59.6391	43.9453	59.5691	43.9453	59.532	43.9453	59.4877	43.9453	59.4077	43.9453	59.4419	43.9453	59.2954	43.9453	59.4695	43.9453	59.2334	43.9453	59.6045	43.9453	59.2638	43.9453	59.866	43.9453	59.4215	43.9453	60.2502	43.9453	59.722	43.9453	60.7307	43.9453	60.1536	43.9453	61.2662	43.9453	60.6804	43.9453	61.8112	43.9453	61.254	43.9453	62.3244	43.9453	61.8257	43.9453	62.7725	43.9453	62.3537	43.9453	63.1304	43.9453	62.8061	43.9453	63.3808	43.9453	63.1603	43.9453	63.5126	43.9453	63.401	43.9453	63.5197
45.4102	61.4056	45.4102	61.3962	45.4102	61.3757	45.4102	61.3552	45.4102	61.3076	45.4102	61.2991	45.4102	61.2113	45.4102	61.253	45.4102	61.1068	45.4102	61.249	45.4102	61.0237	45.4102	61.3217	45.4102	60.9996	45.4102	61.5	45.4102	61.0735	45.4102	61.7974	45.4102	61.2754	45.4102	62.2062	45.4102	61.6144	45.4102	62.6989	45.4102	62.0742	45.4102	63.2361	45.4102	62.6175	45.4102	63.7757	45.4102	63.1977	45.4102	64.28	45.4102	63.7689	45.4102	64.7181	45.4102	64.2927	45.4102	65.0671	45.4102	64.7395	45.4102	65.3106	45.4102	65.0886	45.4102	65.4379	45.4102	65.3259	45.4102	65.4435
47.6074	64.8419	47.6074	64.8468	47.6074	64.8022	47.6074	64.8206	47.6074	64.7297	47.6074	64.7732	47.6074	64.6329	47.6074	64.7204	47.6074	64.5269	47.6074	64.6839	47.6074	64.4337	47.6074	64.6886	47.6074	64.3807	47.6074	64.7594	47.6074	64.3975	47.6074	64.915	47.6074	64.5089	47.6074	65.1618	47.6074	64.7279	47.6074	65.4908	47.6074	65.0494	47.6074	65.8789	47.6074	65.4513	47.6074	66.2944	47.6074	65.8996	47.6074	66.703	47.6074	66.3562	47.6074	67.0732	47.6074	66.7853	47.6074	67.3787	47.6074	67.1573	47.6074	67.5994	47.6074	67.4495	47.6074	67.7218	47.6074	67.6462	47.6074	67.7381
49.0723	66.8966	49.0723	66.8629	49.0723	66.8876	49.0723	66.7909	49.0723	66.8376	49.0723	66.6918	49.0723	66.7545	49.0723	66.5837	49.0723	66.653	49.0723	66.4918	49.0723	66.5546	49.0723	66.447	49.0723	66.4872	49.0723	66.4805	49.0723	66.4816	49.0723	66.6167	49.0723	66.5658	49.0723	66.8645	49.0723	66.7565	49.0723	67.2129	49.0723	67.0531	49.0723	67.6333	49.0723	67.4359	49.0723	68.0873	49.0723	67.8716	49.0723	68.5346	49.0723	68.3212	49.0723	68.9398	49.0723	68.7471	49.0723	69.2747	49.0723	69.1174	49.0723	69.5184	49.0723	69.4077	49.0723	69.6577	49.0723	69.6006	49.0723	69.6855
50.5371	68.2668	50.5371	68.2317	50.5371	68.2587	50.5371	68.1584	50.5371	68.2082	50.5371	68.0579	50.5371	68.1219	50.5371	67.9479	50.5371	68.0126	50.5371	67.8523	50.5371	67.9	50.5371	67.8003	50.5371	67.8101	50.5371	67.8214	50.5371	67.7731	50.5371	67.9388	50.5371	67.8181	50.5371	68.1614	50.5371	67.9652	50.5371	68.4799	50.5371	68.2185	50.5371	68.8683	50.5371	68.5632	50.5371	69.2903	50.5371	68.9688	50.5371	69.7078	50.5371	69.3974	50.5371	70.0863	50.5371	69.8108	50.5371	70.3977	50.5371	70.1759	50.5371	70.6216	50.5371	70.4668	50.5371	70.7445	50.5371	70.665	50.5371	70.7593
52.7344	69.7228	52.7344	69.6981	52.7344	69.708	52.7344	69.6393	52.7344	69.6539	52.7344	69.5581	52.7344	69.5671	52.7344	69.4726	52.7344	69.4605	52.7344	69.4069	52.7344	69.354	52.7344	69.389	52.7344	69.2742	52.7344	69.4459	52.7344	69.2514	52.7344	69.597	52.7344	69.3141	52.7344	69.8476	52.7344	69.4814	52.7344	70.1855	52.7344	69.7558	52.7344	70.5836	52.7344	70.1207	52.7344	71.007	52.7344	70.5446	52.7344	71.4195	52.7344	70.9891	52.7344	71.7887	52.7344	71.4164	52.7344	72.0885	52.7344	71.794	52.7344	72.2999	52.7344	72.0966	52.7344	72.4101	52.7344	72.3065	52.7344	72.4126
54.1992	71.0558	54.1992	71.0409	54.1992	71.0369	54.1992	70.9972	54.1992	70.985	54.1992	70.9349	54.1992	70.9062	54.1992	70.8701	54.1992	70.8126	54.1992	70.8236	54.1992	70.7226	54.1992	70.8196	54.1992	70.6598	54.1992	70.8813	54.1992	70.651	54.1992	71.0255	54.1992	70.721	54.1992	71.2573	54.1992	70.8857	54.1992	71.5671	54.1992	71.1468	54.1992	71.9323	54.1992	71.4895	54.1992	72.3223	54.1992	71.886	54.1992	72.7044	54.1992	72.3017	54.1992	73.0485	54.1992	72.7018	54.1992	73.3296	54.1992	73.056	54.1992	73.5288	54.1992	73.3403	54.1992	73.6334	54.1992	73.5374	54.1992	73.6366
56.3965	72.6333	56.3965	72.6205	56.3965	72.6178	56.3965	72.5837	56.3965	72.5747	56.3965	72.5318	56.3965	72.5094	56.3965	72.4784	56.3965	72.4321	56.3965	72.4414	56.3965	72.3585	56.3965	72.4409	56.3965	72.3084	56.3965	72.4966	56.3965	72.3039	56.3965	72.6231	56.3965	72.3658	56.3965	72.8256	56.3965	72.5081	56.3965	73.0972	56.3965	72.7335	56.3965	73.4196	56.3965	73.0313	56.3965	73.767	56.3965	73.3792	56.3965	74.1103	56.3965	73.7479	56.3965	74.4219	56.3965	74.1066	56.3965	74.678	56.3965	74.4271	56.3965	74.8602	56.3965	74.6863	56.3965	74.956	56.3965	74.8671	56.3965	74.9586
