"SPL Horizontal"
"On-Axis"		"10°"		"-10°"		"20°"		"-20°"		"30°"		"-30°"		"40°"		"-40°"		"50°"		"-50°"		"60°"		"-60°"		"70°"		"-70°"		"80°"		"-80°"		"90°"		"-90°"		"100°"		"-100°"		"110°"		"-110°"		"120°"		"-120°"		"130°"		"-130°"		"140°"		"-140°"		"150°"		"-150°"		"160°"		"-160°"		"170°"		"-170°"		"180°"
"Frequency / Hz"	"Sound Pressure Level / dB (re 20 µPa/V)  [2.83  V @ 1. m]"	"Frequency / Hz"	"Sound Pressure Level / dB (re 20 µPa/V)  [2.83  V @ 1. m]"	"Frequency / Hz"	"Sound Pressure Level / dB (re 20 µPa/V)  [2.83  V @ 1. m]"	"Frequency / Hz"	"Sound Pressure Level / dB (re 20 µPa/V)  [2.83  V @ 1. m]"	"Frequency / Hz"	"Sound Pressure Level / dB (re 20 µPa/V)  [2.83  V @ 1. m]"	"Frequency / Hz"	"Sound Pressure Level / dB (re 20 µPa/V)  [2.83  V @ 1. m]"	"Frequency / Hz"	"Sound Pressure Level / dB (re 20 µPa/V)  [2.83  V @ 1. m]"	"Frequency / Hz"	"Sound Pressure Level / dB (re 20 µPa/V)  [2.83  V @ 1. m]"	"Frequency / Hz"	"Sound Pressure Level / dB (re 20 µPa/V)  [2.83  V @ 1. m]"	"Frequency / Hz"	"Sound Pressure Level / dB (re 20 µPa/V)  [2.83  V @ 1. m]"	"Frequency / Hz"	"Sound Pressure Level / dB (re 20 µPa/V)  [2.83  V @ 1. m]"	"Frequency / Hz"	"Sound Pressure Level / dB (re 20 µPa/V)  [2.83  V @ 1. m]"	"Frequency / Hz"	"Sound Pressure Level / dB (re 20 µPa/V)  [2.83  V @ 1. m]"	"Frequency / Hz"	"Sound Pressure Level / dB (re 20 µPa/V)  [2.83  V @ 1. m]"	"Frequency / Hz"	"Sound Pressure Level / dB (re 20 µPa/V)  [2.83  V @ 1. m]"	"Frequency / Hz"	"Sound Pressure Level / dB (re 20 µPa/V)  [2.83  V @ 1. m]"	"Frequency / Hz"	"Sound Pressure Level / dB (re 20 µPa/V)  [2.83  V @ 1. m]"	"Frequency / Hz"	"Sound Pressure Level / dB (re 20 µPa/V)  [2.83  V @ 1. m]"	"Frequency / Hz"	"Sound Pressure Level / dB (re 20 µPa/V)  [2.83  V @ 1. m]"	"Frequency / Hz"	"Sound Pressure Level / dB (re 20 µPa/V)  [2.83  V @ 1. m]"	"Frequency / Hz"	"Sound Pressure Level / dB (re 20 µPa/V)  [2.83  V @ 1. m]"	"Frequency / Hz"	"Sound Pressure Level / dB (re 20 µPa/V)  [2.83  V @ 1. m]"	"Frequency / Hz"	"Sound Pressure Level / dB (re 20 µPa/V)  [2.83  V @ 1. m]"	"Frequency / Hz"	"Sound Pressure Level / dB (re 20 µPa/V)  [2.83  V @ 1. m]"	"Frequency / Hz"	"Sound Pressure Level / dB (re 20 µPa/V)  [2.83  V @ 1. m]"	"Frequency / Hz"	"Sound Pressure Level / dB (re 20 µPa/V)  [2.83  V @ 1. m]"	"Frequency / Hz"	"Sound Pressure Level / dB (re 20 µPa/V)  [2.83  V @ 1. m]"	"Frequency / Hz"	"Sound Pressure Level / dB (re 20 µPa/V)  [2.83  V @ 1. m]"	"Frequency / Hz"	"Sound Pressure Level / dB (re 20 µPa/V)  [2.83  V @ 1. m]"	"Frequency / Hz"	"Sound Pressure Level / dB (re 20 µPa/V)  [2.83  V @ 1. m]"	"Frequency / Hz"	"Sound Pressure Level / dB (re 20 µPa/V)  [2.83  V @ 1. m]"	"Frequency / Hz"	"Sound Pressure Level / dB (re 20 µPa/V)  [2.83  V @ 1. m]"	"Frequency / Hz"	"Sound Pressure Level / dB (re 20 µPa/V)  [2.83  V @ 1. m]"	"Frequency / Hz"	"Sound Pressure Level / dB (re 20 µPa/V)  [2.83  V @ 1. m]"	"Frequency / Hz"	"Sound Pressure Level / dB (re 20 µPa/V)  [2.83  V @ 1. m]"	"Frequency / Hz"	"Sound Pressure Level / dB (re 20 µPa/V)  [2.83  V @ 1. m]"
20.5078	53.6293	20.5078	52.9253	20.5078	54.1855	20.5078	52.0475	20.5078	54.6079	20.5078	50.9583	20.5078	54.8999	20.5078	49.614	20.5078	55.0573	20.5078	47.9893	20.5078	55.072	20.5078	46.1687	20.5078	54.9364	20.5078	44.6232	20.5078	54.6478	20.5078	44.3814	20.5078	54.2162	20.5078	45.7547	20.5078	53.674	20.5078	47.7569	20.5078	53.0903	20.5078	49.6629	20.5078	52.5819	20.5078	51.2693	20.5078	52.2962	20.5078	52.556	20.5078	52.3424	20.5078	53.5393	20.5078	52.7108	20.5078	54.2348	20.5078	53.2749	20.5078	54.6537	20.5078	53.8742	20.5078	54.8059	20.5078	54.3789	20.5078	54.7055
21.9727	35.026	21.9727	36.572	21.9727	35.751	21.9727	39.4545	21.9727	37.7128	21.9727	42.4153	21.9727	39.9865	21.9727	45.0626	21.9727	42.3126	21.9727	47.365	21.9727	44.5977	21.9727	49.3667	21.9727	46.7704	21.9727	51.1177	21.9727	48.7822	21.9727	52.6586	21.9727	50.6109	21.9727	54.0199	21.9727	52.253	21.9727	55.2219	21.9727	53.7141	21.9727	56.2761	21.9727	55.0023	21.9727	57.1871	21.9727	56.1245	21.9727	57.9538	21.9727	57.085	21.9727	58.5725	21.9727	57.8856	21.9727	59.0389	21.9727	58.5269	21.9727	59.3495	21.9727	59.009	21.9727	59.5023	21.9727	59.3321	21.9727	59.4965
23.4375	57.8657	23.4375	57.79	23.4375	57.9446	23.4375	57.7255	23.4375	58.0263	23.4375	57.688	23.4375	58.1177	23.4375	57.6998	23.4375	58.2308	23.4375	57.7863	23.4375	58.3804	23.4375	57.9696	23.4375	58.5805	23.4375	58.261	23.4375	58.841	23.4375	58.6557	23.4375	59.1646	23.4375	59.1332	23.4375	59.5462	23.4375	59.6619	23.4375	59.9726	23.4375	60.2072	23.4375	60.4243	23.4375	60.7371	23.4375	60.8776	23.4375	61.2244	23.4375	61.308	23.4375	61.6478	23.4375	61.6923	23.4375	61.9911	23.4375	62.0113	23.4375	62.2429	23.4375	62.25	23.4375	62.3961	23.4375	62.3977	23.4375	62.4476
24.9023	55.7964	24.9023	55.653	24.9023	55.9353	24.9023	55.522	24.9023	56.0654	24.9023	55.4342	24.9023	56.1919	24.9023	55.4334	24.9023	56.328	24.9023	55.5672	24.9023	56.4927	24.9023	55.8713	24.9023	56.7088	24.9023	56.3515	24.9023	56.9973	24.9023	56.9793	24.9023	57.3726	24.9023	57.7028	24.9023	57.8362	24.9023	58.4646	24.9023	58.3746	24.9023	59.2139	24.9023	58.9611	24.9023	59.9112	24.9023	59.5619	24.9023	60.5268	24.9023	60.1417	24.9023	61.0392	24.9023	60.6691	24.9023	61.4333	24.9023	61.1189	24.9023	61.6998	24.9023	61.4722	24.9023	61.8347	24.9023	61.7153	24.9023	61.8385
26.3672	60.3125	26.3672	60.2704	26.3672	60.368	26.3672	60.2493	26.3672	60.4346	26.3672	60.2609	26.3672	60.5155	26.3672	60.3197	26.3672	60.6186	26.3672	60.4399	26.3672	60.756	26.3672	60.6325	26.3672	60.941	26.3672	60.9018	26.3672	61.1845	26.3672	61.2439	26.3672	61.4915	26.3672	61.6464	26.3672	61.8574	26.3672	62.0909	26.3672	62.2681	26.3672	62.5546	26.3672	62.7017	26.3672	63.0135	26.3672	63.1329	26.3672	63.4439	26.3672	63.5369	26.3672	63.8242	26.3672	63.8924	26.3672	64.137	26.3672	64.183	26.3672	64.3693	26.3672	64.3967	26.3672	64.5133	26.3672	64.5258	26.3672	64.5655
27.832	59.962	27.832	59.9404	27.832	59.9844	27.832	59.9265	27.832	60.0091	27.832	59.9348	27.832	60.0459	27.832	59.986	27.832	60.1122	27.832	60.103	27.832	60.231	27.832	60.3057	27.832	60.4252	27.832	60.6049	27.832	60.7107	27.832	60.998	27.832	61.0893	27.832	61.4686	27.832	61.5473	27.832	61.9908	27.832	62.0583	27.832	62.5335	27.832	62.5902	27.832	63.0652	27.832	63.1109	27.832	63.5577	27.832	63.592	27.832	63.9872	27.832	64.0109	27.832	64.3359	27.832	64.3505	27.832	64.5919	27.832	64.5996	27.832	64.7479	27.832	64.7511	27.832	64.8011
29.2969	64.6591	29.2969	64.6398	29.2969	64.6946	29.2969	64.6391	29.2969	64.7475	29.2969	64.6628	29.2969	64.8219	29.2969	64.7198	29.2969	64.9242	29.2969	64.8199	29.2969	65.0611	29.2969	64.972	29.2969	65.2381	29.2969	65.1814	29.2969	65.4578	29.2969	65.4476	29.2969	65.7188	29.2969	65.7632	29.2969	66.0155	29.2969	66.1149	29.2969	66.3385	29.2969	66.485	29.2969	66.6746	29.2969	66.8543	29.2969	67.0086	29.2969	67.2037	29.2969	67.3241	29.2969	67.5156	29.2969	67.6052	29.2969	67.7753	29.2969	67.8378	29.2969	67.9712	29.2969	68.0102	29.2969	68.0952	29.2969	68.1138	29.2969	68.143
30.7617	66.1018	30.7617	66.0513	30.7617	66.1712	30.7617	66.0228	30.7617	66.2592	30.7617	66.0224	30.7617	66.3682	30.7617	66.0581	30.7617	66.5024	30.7617	66.1385	30.7617	66.667	30.7617	66.2714	30.7617	66.8664	30.7617	66.461	30.7617	67.1026	30.7617	66.7064	30.7617	67.3735	30.7617	67.0009	30.7617	67.6725	30.7617	67.3325	30.7617	67.9884	30.7617	67.6856	30.7617	68.307	30.7617	68.0427	30.7617	68.6124	30.7617	68.3866	30.7617	68.8888	30.7617	68.7014	30.7617	69.1221	30.7617	68.9738	30.7617	69.3008	30.7617	69.1928	30.7617	69.4165	30.7617	69.3507	30.7617	69.4643	30.7617	69.4422
32.2266	68.1906	32.2266	68.1702	32.2266	68.2291	32.2266	68.1695	32.2266	68.2867	32.2266	68.1922	32.2266	68.3661	32.2266	68.2439	32.2266	68.4714	32.2266	68.3311	32.2266	68.607	32.2266	68.4595	32.2266	68.776	32.2266	68.6323	32.2266	68.9795	32.2266	68.8488	32.2266	69.2148	32.2266	69.1039	32.2266	69.4753	32.2266	69.3878	32.2266	69.7511	32.2266	69.6876	32.2266	70.0297	32.2266	69.9884	32.2266	70.2979	32.2266	70.275	32.2266	70.5429	32.2266	70.5335	32.2266	70.7531	32.2266	70.7522	32.2266	70.9193	32.2266	70.9221	32.2266	71.0344	32.2266	71.0375	32.2266	71.0938	32.2266	71.0951
33.6914	69.802	33.6914	69.79	33.6914	69.8302	33.6914	69.7957	33.6914	69.8749	33.6914	69.8223	33.6914	69.9381	33.6914	69.8741	33.6914	70.0234	33.6914	69.9559	33.6914	70.1346	33.6914	70.0713	33.6914	70.2748	33.6914	70.2224	33.6914	70.4453	33.6914	70.4084	33.6914	70.644	33.6914	70.6251	33.6914	70.8658	33.6914	70.8652	33.6914	71.1023	33.6914	71.1186	33.6914	71.3433	33.6914	71.3732	33.6914	71.5775	33.6914	71.6166	33.6914	71.7938	33.6914	71.8365	33.6914	71.9817	33.6914	72.0224	33.6914	72.1326	33.6914	72.1659	33.6914	72.2397	33.6914	72.2613	33.6914	72.2983	33.6914	72.3058
35.1562	71.5613	35.1562	71.5425	35.1562	71.598	35.1562	71.5424	35.1562	71.6533	35.1562	71.5632	35.1562	71.7289	35.1562	71.6082	35.1562	71.8273	35.1562	71.6811	35.1562	71.951	35.1562	71.7854	35.1562	72.1012	35.1562	71.9229	35.1562	72.2776	35.1562	72.0934	35.1562	72.477	35.1562	72.2938	35.1562	72.6939	35.1562	72.5183	35.1562	72.9205	35.1562	72.7581	35.1562	73.1474	35.1562	73.0028	35.1562	73.3646	35.1562	73.241	35.1562	73.562	35.1562	73.4611	35.1562	73.7301	35.1562	73.6524	35.1562	73.8608	35.1562	73.806	35.1562	73.9479	35.1562	73.9153	35.1562	73.9871	35.1562	73.9763
36.6211	72.993	36.6211	72.9784	36.6211	73.0254	36.6211	72.9823	36.6211	73.0764	36.6211	73.0061	36.6211	73.1472	36.6211	73.0525	36.6211	73.2397	36.6211	73.1241	36.6211	73.3555	36.6211	73.2234	36.6211	73.4952	36.6211	73.3517	36.6211	73.6574	36.6211	73.508	36.6211	73.8391	36.6211	73.6894	36.6211	74.0347	36.6211	73.8901	36.6211	74.2371	36.6211	74.1024	36.6211	74.4381	36.6211	74.3171	36.6211	74.629	36.6211	74.5245	36.6211	74.8014	36.6211	74.715	36.6211	74.9473	36.6211	74.88	36.6211	75.0602	36.6211	75.0122	36.6211	75.135	36.6211	75.1063	36.6211	75.1684	36.6211	75.1589
38.0859	74.6062	38.0859	74.5966	38.0859	74.6333	38.0859	74.605	38.0859	74.6782	38.0859	74.6327	38.0859	74.7417	38.0859	74.6812	38.0859	74.8247	38.0859	74.7523	38.0859	74.9281	38.0859	74.8475	38.0859	75.0518	38.0859	74.9672	38.0859	75.1944	38.0859	75.1104	38.0859	75.3534	38.0859	75.274	38.0859	75.5244	38.0859	75.4532	38.0859	75.7019	38.0859	75.6413	38.0859	75.8791	38.0859	75.8304	38.0859	76.0488	38.0859	76.0119	38.0859	76.2037	38.0859	76.1774	38.0859	76.3367	38.0859	76.3192	38.0859	76.4418	38.0859	76.4309	38.0859	76.514	38.0859	76.5083	38.0859	76.5502	38.0859	76.5484
39.5508	76.1302	39.5508	76.1211	39.5508	76.1564	39.5508	76.1294	39.5508	76.1995	39.5508	76.1562	39.5508	76.2596	39.5508	76.2026	39.5508	76.3371	39.5508	76.2698	39.5508	76.4321	39.5508	76.3584	39.5508	76.5443	39.5508	76.4684	39.5508	76.6727	39.5508	76.5984	39.5508	76.8153	39.5508	76.7458	39.5508	76.969	39.5508	76.9065	39.5508	77.1292	39.5508	77.0748	39.5508	77.2902	39.5508	77.2443	39.5508	77.4453	39.5508	77.4077	39.5508	77.5875	39.5508	77.5578	39.5508	77.7097	39.5508	77.6875	39.5508	77.8062	39.5508	77.7908	39.5508	77.8721	39.5508	77.8631	39.5508	77.9044	39.5508	77.9014
41.0156	77.4783	41.0156	77.4758	41.0156	77.4958	41.0156	77.4883	41.0156	77.5288	41.0156	77.5164	41.0156	77.5779	41.0156	77.5609	41.0156	77.6439	41.0156	77.6231	41.0156	77.7272	41.0156	77.7042	41.0156	77.8278	41.0156	77.8049	41.0156	77.945	41.0156	77.925	41.0156	78.0771	41.0156	78.0631	41.0156	78.2213	41.0156	78.2162	41.0156	78.3734	41.0156	78.3792	41.0156	78.5283	41.0156	78.5452	41.0156	78.6796	41.0156	78.7059	41.0156	78.8208	41.0156	78.8527	41.0156	78.9451	41.0156	78.9776	41.0156	79.0464	41.0156	79.0742	41.0156	79.1194	41.0156	79.138	41.0156	79.1604	41.0156	79.167
42.4805	78.4957	42.4805	78.4952	42.4805	78.5103	42.4805	78.5091	42.4805	78.5394	42.4805	78.5379	42.4805	78.5833	42.4805	78.5822	42.4805	78.6424	42.4805	78.6428	42.4805	78.7172	42.4805	78.7201	42.4805	78.8075	42.4805	78.8138	42.4805	78.9128	42.4805	78.923	42.4805	79.031	42.4805	79.0454	42.4805	79.1595	42.4805	79.1774	42.4805	79.2941	42.4805	79.3147	42.4805	79.4299	42.4805	79.4519	42.4805	79.5613	42.4805	79.5833	42.4805	79.6825	42.4805	79.703	42.4805	79.7881	42.4805	79.8056	42.4805	79.873	42.4805	79.8863	42.4805	79.933	42.4805	79.9413	42.4805	79.9652	42.4805	79.968
43.9453	79.431	43.9453	79.4323	43.9453	79.4425	43.9453	79.4466	43.9453	79.467	43.9453	79.4745	43.9453	79.5047	43.9453	79.5166	43.9453	79.556	43.9453	79.5732	43.9453	79.621	43.9453	79.6445	43.9453	79.6999	43.9453	79.7301	43.9453	79.792	43.9453	79.8287	43.9453	79.896	43.9453	79.938	43.9453	80.0098	43.9453	80.0552	43.9453	80.13	43.9453	80.1763	43.9453	80.2526	43.9453	80.297	43.9453	80.3724	43.9453	80.4125	43.9453	80.4842	43.9453	80.5181	43.9453	80.5824	43.9453	80.6088	43.9453	80.6619	43.9453	80.6805	43.9453	80.7186	43.9453	80.7295	43.9453	80.7494	43.9453	80.7529
45.4102	80.1451	45.4102	80.1508	45.4102	80.1509	45.4102	80.1682	45.4102	80.1684	45.4102	80.1972	45.4102	80.198	45.4102	80.2381	45.4102	80.2401	45.4102	80.2911	45.4102	80.2949	45.4102	80.3562	45.4102	80.3624	45.4102	80.4329	45.4102	80.4423	45.4102	80.5201	45.4102	80.5333	45.4102	80.6162	45.4102	80.6335	45.4102	80.7187	45.4102	80.74	45.4102	80.8245	45.4102	80.849	45.4102	80.9297	45.4102	80.9565	45.4102	81.0303	45.4102	81.0575	45.4102	81.1218	45.4102	81.1475	45.4102	81.1997	45.4102	81.2217	45.4102	81.2601	45.4102	81.2763	45.4102	81.2997	45.4102	81.3083	45.4102	81.3161
46.875	80.6237	46.875	80.6302	46.875	80.628	46.875	80.6475	46.875	80.6434	46.875	80.6755	46.875	80.6703	46.875	80.7145	46.875	80.709	46.875	80.7647	46.875	80.7597	46.875	80.826	46.875	80.8223	46.875	80.8982	46.875	80.8964	46.875	80.9806	46.875	80.9809	46.875	81.0715	46.875	81.0738	46.875	81.1687	46.875	81.1727	46.875	81.269	46.875	81.2741	46.875	81.3684	46.875	81.3743	46.875	81.4628	46.875	81.4688	46.875	81.5479	46.875	81.5535	46.875	81.6194	46.875	81.6241	46.875	81.6736	46.875	81.6771	46.875	81.7078	46.875	81.7096	46.875	81.7201
48.3398	81.1033	48.3398	81.1098	48.3398	81.107	48.3398	81.1266	48.3398	81.1213	48.3398	81.1535	48.3398	81.1462	48.3398	81.1905	48.3398	81.1821	48.3398	81.2375	48.3398	81.2288	48.3398	81.2943	48.3398	81.2861	48.3398	81.3605	48.3398	81.3535	48.3398	81.4351	48.3398	81.43	48.3398	81.5167	48.3398	81.5139	48.3398	81.6034	48.3398	81.603	48.3398	81.6925	48.3398	81.6942	48.3398	81.7808	48.3398	81.7842	48.3398	81.8645	48.3398	81.869	48.3398	81.94	48.3398	81.9449	48.3398	82.0034	48.3398	82.0079	48.3398	82.0517	48.3398	82.0551	48.3398	82.0822	48.3398	82.084	48.3398	82.0932
51.2695	81.8191	51.2695	81.8268	51.2695	81.8207	51.2695	81.8436	51.2695	81.8316	51.2695	81.8695	51.2695	81.8517	51.2695	81.9042	51.2695	81.881	51.2695	81.9473	51.2695	81.9192	51.2695	81.9982	51.2695	81.9659	51.2695	82.0562	51.2695	82.0207	51.2695	82.1203	51.2695	82.0825	51.2695	82.1892	51.2695	82.1502	51.2695	82.2613	51.2695	82.222	51.2695	82.3342	51.2695	82.2958	51.2695	82.4054	51.2695	82.3688	51.2695	82.4719	51.2695	82.4384	51.2695	82.5304	51.2695	82.5015	51.2695	82.5782	51.2695	82.5551	51.2695	82.6129	51.2695	82.5968	51.2695	82.6327	51.2695	82.6245	51.2695	82.6367
52.7344	82.1152	52.7344	82.1234	52.7344	82.1142	52.7344	82.1386	52.7344	82.1204	52.7344	82.1604	52.7344	82.1342	52.7344	82.1888	52.7344	82.1555	52.7344	82.2233	52.7344	82.1843	52.7344	82.2637	52.7344	82.2205	52.7344	82.3094	52.7344	82.2637	52.7344	82.36	52.7344	82.3133	52.7344	82.4144	52.7344	82.3682	52.7344	82.4714	52.7344	82.4272	52.7344	82.5294	52.7344	82.4884	52.7344	82.5863	52.7344	82.5496	52.7344	82.6398	52.7344	82.6082	52.7344	82.6873	52.7344	82.6617	52.7344	82.7265	52.7344	82.7073	52.7344	82.7553	52.7344	82.7426	52.7344	82.7721	52.7344	82.7658	52.7344	82.7758
54.1992	82.2456	54.1992	82.2548	54.1992	82.2433	54.1992	82.2705	54.1992	82.2478	54.1992	82.2927	54.1992	82.2594	54.1992	82.321	54.1992	82.2781	54.1992	82.3552	54.1992	82.3039	54.1992	82.3949	54.1992	82.3366	54.1992	82.4394	54.1992	82.3758	54.1992	82.488	54.1992	82.421	54.1992	82.5397	54.1992	82.4713	54.1992	82.593	54.1992	82.5256	54.1992	82.6464	54.1992	82.5822	54.1992	82.6977	54.1992	82.6391	54.1992	82.7451	54.1992	82.6941	54.1992	82.7863	54.1992	82.7446	54.1992	82.8197	54.1992	82.7881	54.1992	82.8434	54.1992	82.8225	54.1992	82.8563	54.1992	82.8459	54.1992	82.8572
55.6641	82.3319	55.6641	82.347	55.6641	82.3213	55.6641	82.3662	55.6641	82.3154	55.6641	82.3893	55.6641	82.3143	55.6641	82.4161	55.6641	82.3184	55.6641	82.4461	55.6641	82.3276	55.6641	82.4789	55.6641	82.3423	55.6641	82.5141	55.6641	82.3624	55.6641	82.5508	55.6641	82.3879	55.6641	82.588	55.6641	82.4186	55.6641	82.6247	55.6641	82.4541	55.6641	82.6596	55.6641	82.4937	55.6641	82.6913	55.6641	82.536	55.6641	82.7184	55.6641	82.5796	55.6641	82.7396	55.6641	82.6225	55.6641	82.7539	55.6641	82.6626	55.6641	82.7602	55.6641	82.6978	55.6641	82.7578	55.6641	82.7262	55.6641	82.7464
58.5938	82.3491	58.5938	82.3559	58.5938	82.3477	58.5938	82.368	58.5938	82.3519	58.5938	82.385	58.5938	82.3616	58.5938	82.4067	58.5938	82.3767	58.5938	82.4325	58.5938	82.397	58.5938	82.4621	58.5938	82.4222	58.5938	82.4949	58.5938	82.452	58.5938	82.5303	58.5938	82.4857	58.5938	82.5676	58.5938	82.5225	58.5938	82.606	58.5938	82.5616	58.5938	82.6443	58.5938	82.6016	58.5938	82.6814	58.5938	82.6413	58.5938	82.7155	58.5938	82.6791	58.5938	82.7451	58.5938	82.7134	58.5938	82.7685	58.5938	82.743	58.5938	82.7846	58.5938	82.7666	58.5938	82.7926	58.5938	82.7832	58.5938	82.7921
60.0586	82.4989	60.0586	82.5077	60.0586	82.4953	60.0586	82.5214	60.0586	82.4972	60.0586	82.5397	60.0586	82.5044	60.0586	82.5619	60.0586	82.5169	60.0586	82.5874	60.0586	82.5345	60.0586	82.6155	60.0586	82.5568	60.0586	82.6454	60.0586	82.5834	60.0586	82.6765	60.0586	82.614	60.0586	82.7083	60.0586	82.6477	60.0586	82.74	60.0586	82.6837	60.0586	82.771	60.0586	82.7209	60.0586	82.8004	60.0586	82.7577	60.0586	82.8274	60.0586	82.7926	60.0586	82.8511	60.0586	82.8242	60.0586	82.8702	60.0586	82.851	60.0586	82.8841	60.0586	82.8718	60.0586	82.8917	60.0586	82.8858	60.0586	82.8924
62.9883	82.7081	62.9883	82.7097	62.9883	82.7104	62.9883	82.7154	62.9883	82.7168	62.9883	82.7251	62.9883	82.7268	62.9883	82.7383	62.9883	82.7404	62.9883	82.7548	62.9883	82.7572	62.9883	82.7741	62.9883	82.777	62.9883	82.7956	62.9883	82.7994	62.9883	82.819	62.9883	82.8241	62.9883	82.8437	62.9883	82.8504	62.9883	82.8689	62.9883	82.8777	62.9883	82.8941	62.9883	82.905	62.9883	82.9183	62.9883	82.931	62.9883	82.9409	62.9883	82.9547	62.9883	82.9611	62.9883	82.975	62.9883	82.9784	62.9883	82.991	62.9883	82.9923	62.9883	83.0019	62.9883	83.0022	62.9883	83.0074	62.9883	83.0074
64.4531	82.7926	64.4531	82.7942	64.4531	82.794	64.4531	82.7987	64.4531	82.7983	64.4531	82.8057	64.4531	82.8054	64.4531	82.8151	64.4531	82.8149	64.4531	82.8263	64.4531	82.8265	64.4531	82.839	64.4531	82.8399	64.4531	82.8529	64.4531	82.8547	64.4531	82.8674	64.4531	82.8707	64.4531	82.8823	64.4531	82.8873	64.4531	82.8971	64.4531	82.9042	64.4531	82.9116	64.4531	82.9208	64.4531	82.9252	64.4531	82.9365	64.4531	82.9378	64.4531	82.9504	64.4531	82.9492	64.4531	82.962	64.4531	82.9591	64.4531	82.9707	64.4531	82.9673	64.4531	82.9762	64.4531	82.9736	64.4531	82.9784	64.4531	82.9774
67.3828	82.8885	67.3828	82.8855	67.3828	82.895	67.3828	82.8858	67.3828	82.9045	67.3828	82.8893	67.3828	82.9168	67.3828	82.8956	67.3828	82.9312	67.3828	82.9042	67.3828	82.9471	67.3828	82.9147	67.3828	82.9637	67.3828	82.9266	67.3828	82.9804	67.3828	82.9395	67.3828	82.9966	67.3828	82.9531	67.3828	83.0118	67.3828	82.9673	67.3828	83.0256	67.3828	82.9816	67.3828	83.0375	67.3828	82.9958	67.3828	83.0472	67.3828	83.0091	67.3828	83.0543	67.3828	83.0214	67.3828	83.0589	67.3828	83.0322	67.3828	83.0611	67.3828	83.0414	67.3828	83.061	67.3828	83.049	67.3828	83.0589	67.3828	83.0548
