Freq[Hz]    GD[ms]  Phase[Deg]
5.00000    349.597    89.698
5.07273    348.673    83.706
5.14651    347.163    75.856
5.22137    345.329    65.372
5.29732    343.388    54.067
5.37437    341.538    42.058
5.45254    339.967    30.505
5.53185    338.798    19.380
5.61231    337.966     8.644
5.69394    337.183    -1.748
5.77676    336.119   -11.866
5.86079    334.629   -21.803
5.94604    332.844   -31.631
6.03252    331.170   -41.405
6.12027    330.368   -51.167
6.20929    331.344   -60.960
6.29961    334.004   -70.820
6.39124    337.338   -80.781
6.48420    341.578   -90.875
6.57851    346.738  -101.107
6.67420    353.243  -111.489
6.77128    361.602  -122.050
6.86977    372.194  -132.816
6.96969    384.966  -143.771
7.07107    399.295  -154.947
7.17392    413.835  -166.418
7.27827    426.835  -178.301
7.38413    436.751   169.295
7.49154    442.846   155.987
7.60050    445.300   141.053
7.71105    444.832   123.411
7.82321    442.203   101.239
7.93701    437.945    69.533
8.05245    432.351    25.326
8.16958    425.508   -18.094
8.28841    417.317   -48.596
8.40896    407.464   -69.703
8.53128    395.338   -86.461
8.65537    380.112  -100.465
8.78126    361.092  -112.830
8.90899    338.221  -124.343
9.03857    312.453  -135.183
9.17004    285.558  -145.517
9.30342    259.472  -155.427
9.43874    235.691  -164.808
9.57603    215.033  -173.611
9.71532    197.687   178.392
9.85663    183.404   171.462
10.0000    171.645   165.799
10.1455    161.573   161.772
10.2930    152.310   159.528
10.4427    143.887   158.500
10.5946    136.933   157.806
10.7487    131.316   156.083
10.9051    126.646   152.143
11.0637    122.747   145.876
11.2246    119.173   137.514
11.3879    115.298   127.421
11.5535    110.570   116.175
11.7216    104.691   104.112
11.8921     97.575    91.654
12.0650     89.143    79.060
12.2405     79.429    66.600
12.4186     68.796    54.480
12.5992     57.799    42.989
12.7825     46.903    32.358
12.9684     36.334    23.181
13.1570     26.184    16.191
13.3484     16.592    13.089
13.5426      7.789    17.144
13.7395     -0.041    31.823
13.9394     -7.070    53.151
14.1421    -14.024    68.458
14.3478    -20.370    76.727
14.5565    -24.925    83.427
14.7683    -27.709    93.279
14.9831    -28.952   107.229
15.2010    -28.775   119.509
15.4221    -27.537   124.603
15.6464    -25.881   123.493
15.8740    -24.386   118.214
16.1049    -23.152   110.381
16.3392    -21.626   101.100
16.5768    -18.918    90.907
16.8179    -14.455    80.342
17.0626     -8.390    69.986
17.3107     -1.372    60.467
17.5625      5.926    53.527
17.8180     12.884    51.532
18.0771     18.757    63.549
18.3401     23.182   105.408
18.6068     26.350   130.473
18.8775     27.963   133.922
19.1521     28.044   129.914
19.4306     28.478   123.610
19.7133     30.063   115.812
20.0000     32.303   106.592
20.2909     35.189    95.576
20.5860     38.112    82.659
20.8855     40.025    68.165
21.1893     40.019    52.696
21.4975     37.784    36.945
21.8102     33.774    21.617
22.1274     29.033     7.320
22.4492     24.688    -5.495
22.7758     21.332   -16.520
23.1071     18.999   -25.641
23.4432     17.667   -32.567
23.7841     16.145   -36.997
24.1301     13.225   -33.586
24.4811      9.379    10.887
24.8372      5.299    74.074
25.1984      1.324    78.953
25.5649     -2.314    74.415
25.9368     -5.311    67.742
26.3141     -7.200    60.673
26.6968     -7.397    54.352
27.0851     -5.538    48.993
27.4791     -1.895    44.402
27.8788      2.632    40.099
28.2843      7.041    35.717
28.6957     10.715    31.269
29.1131     13.480    27.098
29.5365     15.428    23.638
29.9661     16.743    21.086
30.4020     17.622    19.228
30.8442     18.310    17.508
31.2929     19.529    15.319
31.7480     21.394    12.288
32.2098     22.223     8.375
32.6783     21.764     3.804
33.1536     21.102    -1.000
33.6359     20.390    -5.584
34.1251     19.663    -9.684
34.6215     18.929   -13.461
35.1250     18.181   -17.399
35.6359     17.407   -21.928
36.1543     16.605   -27.054
36.6802     15.782   -32.352
37.2137     14.953   -37.137
37.7550     14.137   -40.731
38.3041     13.347   -42.750
38.8613     12.579   -43.390
39.4265     11.818   -43.408
40.0000     11.056   -43.566
40.5818     10.298   -44.224
41.1721      9.575   -45.388
41.7710      8.934   -46.844
42.3785      8.423   -48.257
42.9949      8.071   -49.355
43.6203      7.882   -50.265
44.2548      7.832   -51.331
44.8985      7.876   -52.629
45.5515      7.973   -54.084
46.2141      8.100   -55.814
46.8863      8.256   -57.928
47.5683      8.453   -60.245
48.2602      8.702   -62.615
48.9621      9.002   -65.105
49.6743      9.335   -67.653
50.3968      9.669   -70.109
51.1299      9.972   -72.572
51.8736     10.221   -75.232
52.6281     10.415   -78.109
53.3936     10.563   -81.216
54.1702     10.680   -84.661
54.9581     10.784   -88.421
55.7575     10.883   -92.337
56.5685     10.974   -96.288
57.3914     11.051  -100.161
58.2261     11.108  -103.787
59.0730     11.135  -107.076
59.9323     11.121  -110.105
60.8040     11.060  -112.993
61.6884     10.953  -115.939
62.5857     10.803  -119.231
63.4960     10.621  -122.915
64.4196     10.421  -126.811
65.3566     10.217  -130.874
66.3073     10.018  -135.012
67.2717      9.826  -139.044
68.2502      9.638  -143.017
69.2429      9.445  -146.925
70.2501      9.240  -150.591
71.2719      9.019  -153.959
72.3086      8.785  -157.041
73.3603      8.545  -159.910
74.4274      8.310  -162.699
75.5099      8.088  -165.566
76.6083      7.885  -168.563
77.7226      7.700  -171.525
78.8531      7.528  -174.281
80.0000      7.363  -176.831
81.1636      7.199  -179.177
82.3442      7.036   178.487
83.5419      6.876   175.913
84.7570      6.723   173.010
85.9899      6.583   169.755
87.2406      6.459   166.215
88.5096      6.351   162.550
89.7970      6.256   158.954
91.1031      6.169   155.602
92.4282      6.085   152.586
93.7726      5.996   149.892
95.1366      5.901   147.451
96.5204      5.795   145.023
97.9243      5.680   142.399
99.3486      5.559   139.522
100.794      5.437   136.463
102.260      5.314   133.456
103.747      5.195   130.715
105.256      5.078   128.198
106.787      4.960   125.723
108.340      4.842   123.095
109.916      4.724   120.176
111.515      4.608   116.966
113.137      4.497   113.685
114.783      4.393   110.696
116.452      4.296   108.087
118.146      4.204   105.792
119.865      4.113   103.746
121.608      4.018   101.711
123.377      3.914    99.564
125.171      3.800    97.491
126.992      3.682    95.208
128.839      3.566    92.588
130.713      3.457    89.852
132.615      3.362    87.005
134.543      3.278    84.147
136.500      3.203    81.657
138.486      3.131    79.590
140.500      3.055    77.702
142.544      2.973    75.811
144.617      2.883    73.922
146.721      2.789    71.969
148.855      2.696    69.960
151.020      2.607    67.949
153.217      2.525    65.915
155.445      2.449    63.700
157.706      2.376    61.479
160.000      2.306    59.486
162.327      2.235    57.611
164.688      2.162    55.916
167.084      2.089    54.326
169.514      2.017    52.573
171.980      1.947    50.748
174.481      1.882    48.829
177.019      1.823    46.858
179.594      1.769    45.205
182.206      1.718    43.820
184.856      1.668    42.559
187.545      1.619    41.426
190.273      1.568    40.333
193.041      1.517    39.095
195.849      1.467    37.483
198.697      1.418    35.711
201.587      1.374    34.069
204.520      1.336    32.395
207.494      1.305    30.796
210.512      1.278    29.415
213.574      1.252    28.193
216.681      1.225    27.056
219.833      1.195    25.830
223.030      1.160    24.718
226.274      1.122    23.628
229.565      1.084    22.275
232.905      1.047    20.869
236.292      1.014    19.437
239.729      0.984    17.847
243.216      0.958    16.213
246.754      0.935    14.850
250.343      0.913    13.678
253.984      0.892    12.540
257.678      0.872    11.667
261.426      0.852    10.876
265.229      0.833    10.041
269.087      0.815     9.303
273.001      0.798     8.521
276.972      0.783     7.592
281.000      0.770     6.533
285.088      0.760     5.466
289.234      0.753     4.291
293.441      0.748     3.081
297.709      0.744     1.894
302.040      0.742     0.599
306.433      0.739    -0.777
310.890      0.736    -2.114
315.412      0.733    -3.395
320.000      0.730    -4.496
324.655      0.724    -5.629
329.377      0.717    -6.748
334.168      0.705    -7.900
339.028      0.688    -9.199
343.959      0.666   -10.590
348.962      0.639   -11.953
354.038      0.610   -13.443
359.188      0.581   -15.032
364.412      0.552   -16.620
369.713      0.524   -18.219
375.090      0.496   -19.680
380.546      0.465   -20.765
386.081      0.430   -21.550
391.697      0.389   -21.994
397.394      0.344   -22.051
403.175      0.297   -22.268
409.039      0.252   -22.652
414.989      0.212   -23.374
421.025      0.179   -24.429
427.149      0.151   -25.412
433.362      0.130   -26.121
439.665      0.113   -26.163
446.060      0.100   -25.426
452.548      0.089   -24.379
459.131      0.081   -23.068
465.809      0.076   -22.056
472.584      0.076   -21.806
479.458      0.081   -22.184
486.432      0.092   -22.805
493.507      0.107   -23.238
500.686      0.127   -23.099
507.968      0.150   -22.485
515.357      0.172   -21.889
522.853      0.192   -21.857
530.458      0.209   -22.713
538.174      0.222   -24.355
546.002      0.233   -26.318
553.943      0.243   -28.284
562.001      0.255   -30.025
570.175      0.267   -31.501
578.469      0.279   -32.764
586.883      0.288   -33.859
595.419      0.294   -34.781
604.080      0.294   -35.582
612.866      0.291   -36.308
621.780      0.285   -36.948
630.824      0.278   -37.542
640.000      0.273   -38.104
649.309      0.270   -38.656
658.753      0.269   -39.226
668.335      0.270   -39.822
678.056      0.271   -40.461
687.919      0.273   -41.156
697.925      0.275   -41.914
708.077      0.279   -42.756
718.376      0.284   -43.698
728.825      0.290   -44.754
739.426      0.296   -45.930
750.181      0.303   -47.230
761.093      0.310   -48.640
772.163      0.317   -50.144
783.394      0.323   -51.730
794.789      0.330   -53.373
806.349      0.336   -55.040
818.078      0.341   -56.710
829.977      0.346   -58.353
842.050      0.351   -59.938
854.298      0.355   -61.487
866.724      0.358   -63.008
879.330      0.361   -64.484
892.120      0.363   -65.940
905.097      0.365   -67.389
918.262      0.365   -68.837
931.618      0.364   -70.341
945.169      0.361   -71.945
958.917      0.357   -73.693
972.864      0.351   -75.601
987.015      0.343   -77.689
1001.37      0.333   -79.940
1015.94      0.322   -82.329
1030.71      0.309   -84.834
1045.71      0.295   -87.392
1060.92      0.280   -89.931
1076.35      0.264   -92.375
1092.00      0.250   -94.620
1107.89      0.236   -96.569
1124.00      0.224   -98.098
1140.35      0.213   -99.126
1156.94      0.204   -99.584
1173.77      0.197   -99.479
1190.84      0.192   -98.933
1208.16      0.188   -98.123
1225.73      0.186   -97.329
1243.56      0.186   -96.824
1261.65      0.187   -96.795
1280.00      0.192   -97.351
1298.62      0.199   -98.497
1317.51      0.209  -100.162
1336.67      0.221  -102.235
1356.11      0.235  -104.602
1375.84      0.251  -107.152
1395.85      0.267  -109.775
1416.15      0.282  -112.410
1436.75      0.297  -115.014
1457.65      0.310  -117.586
1478.85      0.321  -120.156
1500.36      0.330  -122.788
1522.19      0.336  -125.533
1544.33      0.341  -128.433
1566.79      0.344  -131.520
1589.58      0.345  -134.779
1612.70      0.345  -138.183
1636.16      0.344  -141.684
1659.95      0.342  -145.210
1684.10      0.339  -148.687
1708.60      0.336  -152.032
1733.45      0.332  -155.188
1758.66      0.328  -158.123
1784.24      0.324  -160.838
1810.19      0.320  -163.377
1836.52      0.315  -165.812
1863.24      0.310  -168.240
1890.34      0.304  -170.757
1917.83      0.298  -173.448
1945.73      0.293  -176.352
1974.03      0.288  -179.467
2002.74      0.283   177.261
2031.87      0.279   173.921
2061.43      0.276   170.605
2091.41      0.272   167.407
2121.83      0.269   164.378
2152.69      0.264   161.529
2184.01      0.259   158.816
2215.77      0.254   156.131
2248.00      0.247   153.364
2280.70      0.240   150.423
2313.87      0.232   147.263
2347.53      0.223   143.951
2381.68      0.214   140.580
2416.32      0.205   137.275
2451.46      0.196   134.157
2487.12      0.187   131.277
2523.30      0.178   128.647
2560.00      0.168   126.235
2597.24      0.159   124.013
2635.01      0.151   122.020
2673.34      0.143   120.289
2712.23      0.135   118.884
2751.68      0.128   117.809
2791.70      0.123   116.987
2832.31      0.118   116.308
2873.50      0.113   115.635
2915.30      0.110   114.885
2957.70      0.107   114.023
3000.72      0.105   113.007
3044.37      0.103   111.819
3088.65      0.102   110.423
3133.58      0.101   108.777
3179.16      0.100   106.856
3225.40      0.099   104.638
3272.31      0.098   102.145
3319.91      0.097    99.448
3368.20      0.096    96.665
3417.19      0.095    93.957
3466.89      0.094    91.461
3517.32      0.092    89.278
3568.48      0.091    87.442
3620.39      0.089    85.922
3673.05      0.087    84.660
3726.47      0.086    83.576
3780.67      0.084    82.622
3835.67      0.083    81.776
3891.46      0.082    81.006
3948.06      0.081    80.254
4005.49      0.081    79.456
4063.75      0.081    78.518
4122.86      0.082    77.350
4182.82      0.083    75.916
4243.66      0.084    74.212
4305.39      0.086    72.270
4368.01      0.087    70.125
4431.55      0.089    67.776
4496.01      0.090    65.209
4561.40      0.091    62.420
4627.75      0.092    59.412
4695.06      0.092    56.253
4763.35      0.093    53.049
4832.64      0.093    49.906
4902.93      0.093    46.939
4974.24      0.092    44.212
5046.60      0.091    41.758
5120.00      0.090    39.545
5194.47      0.088    37.490
5270.03      0.086    35.519
5346.68      0.085    33.572
5424.45      0.083    31.629
5503.35      0.081    29.713
5583.40      0.079    27.864
5664.61      0.077    26.074
5747.01      0.076    24.259
5830.60      0.074    22.331
5915.41      0.073    20.175
6001.45      0.071    17.730
6088.74      0.069    15.041
6177.30      0.068    12.175
6267.15      0.066     9.253
6358.31      0.065     6.391
6450.80      0.064     3.671
6544.62      0.064     1.219
6639.82      0.063    -0.948
6736.40      0.063    -2.831
6834.38      0.062    -4.385
6933.79      0.062    -5.752
7034.64      0.062    -6.979
7136.96      0.061    -8.157
7240.77      0.061    -9.579
7346.09      0.060   -11.347
7452.94      0.060   -13.506
7561.35      0.061   -16.052
7671.33      0.061   -18.840
7782.91      0.062   -21.731
7896.12      0.062   -24.607
8010.97      0.063   -27.427
8127.49      0.064   -30.191
8245.71      0.064   -33.012
8365.65      0.065   -36.004
8487.33      0.065   -39.074
8610.78      0.065   -42.228
8736.03      0.065   -45.460
8863.09      0.065   -48.709
8992.01      0.065   -51.939
9122.80      0.065   -55.160
9255.50      0.065   -58.458
9390.12      0.065   -61.861
9526.70      0.065   -65.242
9665.27      0.065   -68.493
9805.86      0.065   -71.475
9948.49      0.065   -74.087
10093.2      0.065   -76.434
10240.0      0.065   -78.836
10388.9      0.065   -81.651
10540.1      0.065   -85.109
10693.4      0.065   -89.203
10848.9      0.065   -93.701
11006.7      0.065   -98.244
11166.8      0.066  -102.471
11329.2      0.066  -106.139
11494.0      0.066  -109.366
11661.2      0.066  -112.577
11830.8      0.065  -116.239
12002.9      0.065  -120.713
12177.5      0.064  -125.990
12354.6      0.064  -131.731
12534.3      0.063  -137.432
12716.6      0.063  -142.573
12901.6      0.063  -146.863
13089.2      0.062  -150.335
13279.6      0.062  -153.262
13472.8      0.061  -156.189
13668.8      0.061  -159.570
13867.6      0.060  -163.488
14069.3      0.059  -167.779
14273.9      0.058  -172.198
14481.5      0.057  -176.524
14692.2      0.057   179.292
14905.9      0.057   175.096
15122.7      0.056   170.674
15342.7      0.056   165.916
15565.8      0.056   160.835
15792.2      0.055   155.534
16021.9      0.055   150.227
16255.0      0.055   145.169
16491.4      0.055   140.485
16731.3      0.056   136.316
16974.7      0.056   132.486
17221.6      0.056   128.702
17472.1      0.057   124.939
17726.2      0.056   121.069
17984.0      0.056   116.886
18245.6      0.056   111.948
18511.0      0.055   106.267
18780.2      0.055   100.097
19053.4      0.054    93.056
19330.5      0.054    85.205
19611.7      0.053    77.263
19897.0      0.053    69.602
20186.4      0.052    62.698
20480.0      0.051    56.826
20777.9      0.050    51.806
21080.1      0.049    47.181
21386.7      0.048    42.737
21697.8      0.046    38.293
22013.4      0.045    33.849
22333.6      0.043    29.404
22658.4      0.042    24.960
22988.0      0.041    20.516
23322.4      0.040    16.072
23661.6      0.038    11.628
24005.8      0.037     7.184
24355.0      0.037     2.740
24709.2      0.036    -1.704
25068.6      0.035    -6.148
25433.2      0.034   -10.593
25803.2      0.033   -15.037
26178.5      0.033   -19.481
26559.3      0.032   -23.925
26945.6      0.032   -28.369
27337.5      0.031   -32.813
27735.2      0.031   -37.257
28138.6      0.031   -41.701
28547.9      0.030   -46.145
28963.1      0.030   -50.589
29384.4      0.029   -55.034
29811.8      0.029   -59.478
30245.4      0.028   -63.922
30685.3      0.028   -68.366
31131.7      0.027   -72.810
31584.5      0.027   -77.254
32043.9      0.027   -81.698
32510.0      0.026   -86.142
32982.8      0.026   -90.587
33462.6      0.025   -95.031
33949.3      0.025   -99.475
34443.1      0.024  -103.919
34944.1      0.024  -108.364
35452.4      0.023  -112.808
35968.0      0.023  -117.252
36491.2      0.023  -121.696
37022.0      0.022  -126.140
37560.5      0.022  -130.584
38106.8      0.022  -134.616
38661.1      0.021  -138.271
39223.4      0.021  -141.002
39793.9      0.020  -143.101
