Frequency Spectrum for Input Signal

Data Shown:    V2-8 (Community)
Display Parameters:   Frequency: 1000Hz (1/24th Octave)   Mer: 0°  Par: 10°

Freq [Hz]	Signal Level [dBSPL]
22.4	57
23	57.4
23.6	57.8
24	58.4
25	58.9
25.8	59.4
26.5	59.8
27.2	60.3
28	60.7
29	61.1
30	61.6
30.7	62.1
31.5	62.6
32.5	63.1
33.5	63.5
34.5	63.9
35.5	64.3
36.5	64.8
37.5	65.3
38.7	65.8
40	66.2
41.2	66.6
42.5	67.1
43.7	67.6
45	68.1
46.2	68.6
47.5	69
48.7	69.5
50	70
51.5	70.5
53	70.9
54.5	71.4
56	71.9
58	72.4
60	72.9
61.5	73.4
63	73.9
65	74.3
67	74.9
69	75.3
71	75.8
73	76.3
75	76.8
77.5	77.2
80	77.7
82.5	78.2
85	78.6
87.5	79.1
90	79.5
92.5	79.9
95	80.3
97.5	80.7
100	81.1
103	81.5
106	81.8
109	82.1
112	82.4
115	82.7
118	82.9
122	83.1
125	83.3
128	83.4
132	83.5
136	83.5
140	83.5
145	83.4
150	83.2
155	83
160	82.8
165	82.4
170	82.1
175	81.7
180	81.3
185	80.9
190	80.6
195	80.3
200	80.1
206	80
212	79.9
218	79.9
224	79.7
230	79.5
236	79.3
240	79.3
250	79.5
258	80.2
265	81.1
272	82.2
280	83.3
290	84.2
300	85
307	85.5
315	85.8
325	85.9
335	85.8
345	85.5
355	85.2
365	84.8
375	84.5
387	84.2
400	83.8
412	83.6
425	83.7
437	84.1
450	84.7
462	85.2
475	85.4
487	85.2
500	84.7
515	84.3
530	84.1
545	84.3
560	84.6
580	84.8
600	85.1
615	85.3
630	85.2
650	84.3
670	82.4
690	79.6
710	78.9
730	81.5
750	83.2
775	83.1
800	82.6
825	83.7
850	85
875	85.5
900	85.2
925	84.4
950	83.6
975	82.4
1000	81.3
1030	81.1
1060	81.2
1090	81.1
1120	81
1150	80.9
1180	80.7
1220	80
1250	80.9
1280	82
1320	81.9
1360	81.5
1400	81.9
1450	82.9
1500	82.8
1550	82.6
1600	81.7
1650	83
1700	83.9
1750	83.7
1800	83.9
1850	83.6
1900	83.8
1950	83.4
2000	83.4
2060	83.5
2120	83.8
2180	84.9
2240	85.5
2300	85.7
2360	84.9
2400	83.1
2500	83.5
2580	83.1
2650	82.4
2720	83.6
2800	84.7
2900	84.8
3000	84.1
3070	83.7
3150	83.7
3250	84.1
3350	84.1
3450	84.2
3550	84.5
3650	84.8
3750	84.9
3870	85.2
4000	85
4120	84.7
4250	84.4
4370	84.7
4500	84.9
4620	84.5
4750	82.8
4870	83.5
5000	83.9
5150	85
5300	84.4
5450	82.3
5600	81.1
5800	84.5
6000	85.1
6150	86.8
6300	88
6500	86.3
6700	84.8
6900	84.6
7100	83.8
7300	84.9
7500	84.5
7750	83.9
8000	84.1
8250	81.7
8500	83.4
8750	82.5
9000	85.4
9250	88.5
9500	86.7
9750	83.9
10000	83.8
10300	83.6
10600	83.9
10900	82
11200	81.7
11500	76.7
11800	74.3
12200	76.7
12500	77.4
12800	73.3
13200	66.8
13600	65.6
14000	72.4
14500	77.4
15000	80.5
15500	79.8
16000	71.2
16500	68.4
17000	69
17500	70.3
18000	63.7
18500	58.2
19000	50
19500	54.4
20000	55.4
20600	61.6
21200	56.1
21800	52.6
22400	57
