Frequency Spectrum for Input Signal

Data Shown:    V2-8 (Community)
Display Parameters:   Frequency: 1000Hz (1/24th Octave)   Mer: 90°  Par: 20°

Freq [Hz]	Signal Level [dBSPL]
22.4	57.2
23	57.6
23.6	58
24	58.6
25	59.1
25.8	59.6
26.5	60
27.2	60.4
28	60.8
29	61.2
30	61.7
30.7	62.2
31.5	62.7
32.5	63.1
33.5	63.6
34.5	64
35.5	64.3
36.5	64.8
37.5	65.3
38.7	65.8
40	66.2
41.2	66.6
42.5	67.1
43.7	67.6
45	68
46.2	68.5
47.5	68.9
48.7	69.4
50	69.9
51.5	70.4
53	70.8
54.5	71.3
56	71.8
58	72.3
60	72.7
61.5	73.2
63	73.7
65	74.2
67	74.7
69	75.2
71	75.6
73	76.1
75	76.6
77.5	77
80	77.5
82.5	78
85	78.4
87.5	78.9
90	79.3
92.5	79.7
95	80.1
97.5	80.5
100	80.9
103	81.3
106	81.6
109	81.9
112	82.2
115	82.5
118	82.7
122	82.9
125	83.1
128	83.2
132	83.3
136	83.3
140	83.2
145	83.2
150	83
155	82.8
160	82.5
165	82.2
170	81.8
175	81.4
180	81
185	80.7
190	80.3
195	80.1
200	79.9
206	79.9
212	79.8
218	79.7
224	79.6
230	79.4
236	79.3
240	79.3
250	79.5
258	80.1
265	81.1
272	82.1
280	83.2
290	84.1
300	84.8
307	85.3
315	85.6
325	85.7
335	85.5
345	85.3
355	85
365	84.6
375	84.3
387	83.9
400	83.6
412	83.5
425	83.6
437	84
450	84.6
462	85.1
475	85.3
487	85.2
500	84.7
515	84.3
530	84.2
545	84.4
560	84.7
580	85
600	85.5
615	85.9
630	86
650	85.7
670	84.5
690	82.3
710	81.8
730	83.9
750	85
775	84.6
800	83.9
825	84.8
850	85.8
875	86.1
900	85.6
925	84.7
950	83.5
975	82
1000	80.4
1030	80.1
1060	80.3
1090	80.1
1120	79.8
1150	79.7
1180	80
1220	80.1
1250	81.4
1280	82.6
1320	82.7
1360	82.7
1400	83.6
1450	85.2
1500	85.8
1550	86.8
1600	86.6
1650	87.5
1700	87.5
1750	86.4
1800	85.4
1850	84.8
1900	86
1950	85.7
2000	84.6
2060	84.4
2120	85.1
2180	84.9
2240	84
2300	83.8
2360	83
2400	80.9
2500	80.8
2580	80.4
2650	80.6
2720	81.4
2800	82.2
2900	82.6
3000	81.9
3070	82.4
3150	81.3
3250	82.8
3350	82.9
3450	83.5
3550	83.4
3650	84.4
3750	83.5
3870	83.9
4000	83.4
4120	83.7
4250	82.6
4370	83.3
4500	83.6
4620	83.3
4750	81.1
4870	81.2
5000	81.1
5150	82.3
5300	81.6
5450	78.4
5600	77.9
5800	81.6
6000	80.9
6150	81.6
6300	82.7
6500	80.4
6700	79.8
6900	80.9
7100	80.8
7300	81.1
7500	80
7750	80.9
8000	81.2
8250	79.9
8500	80.4
8750	78.3
9000	78.9
9250	77.9
9500	73.8
9750	79.5
10000	82.3
10300	82.6
10600	81.7
10900	83
11200	87.9
11500	85.6
11800	81.7
12200	83
12500	84.4
12800	83.3
13200	77.8
13600	72.8
14000	74.6
14500	76.2
15000	76.3
15500	78.3
16000	77.5
16500	78
17000	70.4
17500	67.2
18000	68.7
18500	69.1
19000	66.2
19500	58.4
20000	62.5
20600	60.3
21200	60
21800	57.7
22400	51.1
