Frequency Spectrum for Input Signal

Data Shown:    V2-8 (Community)
Display Parameters:   Frequency: 1000Hz (1/24th Octave)   Mer: 270°  Par: 160°

Freq [Hz]	Signal Level [dBSPL]
22.4	54
23	54.6
23.6	55.2
24	55.9
25	56.6
25.8	57.3
26.5	57.9
27.2	58.5
28	59
29	59.6
30	60.1
30.7	60.7
31.5	61.3
32.5	61.9
33.5	62.4
34.5	62.8
35.5	63.3
36.5	63.8
37.5	64.4
38.7	64.8
40	65.3
41.2	65.7
42.5	66.2
43.7	66.7
45	67.2
46.2	67.6
47.5	68.1
48.7	68.6
50	69
51.5	69.5
53	69.9
54.5	70.4
56	70.9
58	71.3
60	71.7
61.5	72.2
63	72.6
65	73.1
67	73.5
69	74
71	74.4
73	74.9
75	75.3
77.5	75.7
80	76.2
82.5	76.6
85	77
87.5	77.4
90	77.8
92.5	78.2
95	78.6
97.5	79
100	79.3
103	79.6
106	79.9
109	80.2
112	80.5
115	80.7
118	80.9
122	81.1
125	81.2
128	81.3
132	81.3
136	81.3
140	81.2
145	81.1
150	81
155	80.7
160	80.4
165	80.1
170	79.7
175	79.3
180	78.9
185	78.6
190	78.2
195	78.1
200	78
206	78
212	78
218	78.1
224	78.1
230	78
236	77.8
240	77.7
250	77.8
258	78.2
265	79
272	79.8
280	80.6
290	81.4
300	81.9
307	82.2
315	82.3
325	82.2
335	81.9
345	81.4
355	80.9
365	80.3
375	79.6
387	78.9
400	78
412	77.2
425	76.5
437	76.1
450	75.9
462	75.8
475	75.4
487	74.9
500	74
515	73
530	72.2
545	71.4
560	70.5
580	69.7
600	69.1
615	68.4
630	67.2
650	64.2
670	57.5
690	57.7
710	64.4
730	70.2
750	72.8
775	72.7
800	71.8
825	72.1
850	73
875	73.3
900	73.2
925	72.6
950	72
975	71
1000	69.5
1030	68.8
1060	68.9
1090	69.1
1120	68.2
1150	65.3
1180	62.8
1220	66.9
1250	70.2
1280	71.5
1320	71.4
1360	70.9
1400	70.4
1450	71.9
1500	73.8
1550	74.9
1600	74.8
1650	76.4
1700	76.3
1750	74.3
1800	72.8
1850	71.4
1900	70.8
1950	69.1
2000	68.2
2060	68.2
2120	67.8
2180	69.1
2240	70
2300	69.5
2360	64.9
2400	58.6
2500	59.2
2580	63.3
2650	62.5
2720	58.6
2800	63.7
2900	64.2
3000	53.8
3070	44.8
3150	54.9
3250	55.3
3350	60.8
3450	62.2
3550	61.2
3650	64.8
3750	61
3870	55.3
4000	58.6
4120	62.3
4250	63.4
4370	62.5
4500	59.7
4620	59.5
4750	58.7
4870	59
5000	59.4
5150	62.2
5300	58.7
5450	52.5
5600	50.4
5800	55.1
6000	63.9
6150	64.2
6300	63.2
6500	53.9
6700	47.8
6900	59.9
7100	60.3
7300	58.3
7500	54.5
7750	59.8
8000	62.6
8250	48.2
8500	53.7
8750	56.8
9000	51.6
9250	53.8
9500	54.5
9750	52.3
10000	55.5
10300	53.6
10600	63.1
10900	61.8
11200	59.6
11500	59.5
11800	50.4
12200	53.9
12500	50.6
12800	52.7
13200	44.3
13600	41.9
14000	40.5
14500	37.8
15000	43.2
15500	42.5
16000	42.3
16500	36.8
17000	30
17500	37.4
18000	33.6
18500	32.9
19000	31.5
19500	39.8
20000	45.4
20600	48.7
21200	50.5
21800	55.6
22400	54.8
