Frequency Spectrum for Input Signal

Data Shown:    V2-8 (Community)
Display Parameters:   Frequency: 1000Hz (1/24th Octave)   Mer: 90°  Par: 130°

Freq [Hz]	Signal Level [dBSPL]
22.4	55.4
23	55.9
23.6	56.4
24	57
25	57.6
25.8	58.1
26.5	58.7
27.2	59.2
28	59.6
29	60.1
30	60.6
30.7	61.1
31.5	61.6
32.5	62.1
33.5	62.6
34.5	63
35.5	63.4
36.5	64
37.5	64.4
38.7	64.9
40	65.3
41.2	65.7
42.5	66.2
43.7	66.7
45	67.2
46.2	67.6
47.5	68
48.7	68.5
50	68.9
51.5	69.4
53	69.8
54.5	70.2
56	70.7
58	71.2
60	71.6
61.5	72.1
63	72.5
65	72.9
67	73.4
69	73.9
71	74.3
73	74.7
75	75.2
77.5	75.6
80	76
82.5	76.4
85	76.9
87.5	77.3
90	77.6
92.5	78
95	78.4
97.5	78.8
100	79.1
103	79.4
106	79.7
109	80
112	80.3
115	80.5
118	80.7
122	80.9
125	81
128	81.1
132	81.1
136	81.1
140	81
145	80.9
150	80.7
155	80.5
160	80.2
165	79.9
170	79.5
175	79.1
180	78.6
185	78.3
190	78
195	77.8
200	77.7
206	77.8
212	77.8
218	77.9
224	77.9
230	77.9
236	77.8
240	77.8
250	78
258	78.5
265	79.2
272	80
280	80.8
290	81.5
300	82
307	82.2
315	82.2
325	82.1
335	81.7
345	81.2
355	80.6
365	80
375	79.3
387	78.5
400	77.8
412	77
425	76.5
437	76.4
450	76.6
462	76.8
475	77
487	76.8
500	76.4
515	75.9
530	75.6
545	75.6
560	75.6
580	76
600	76.6
615	77.6
630	78.3
650	78.6
670	77.7
690	75.5
710	74.4
730	75.4
750	75.4
775	74.5
800	74
825	75
850	75.9
875	75.6
900	74.7
925	73.4
950	71.9
975	69.9
1000	67.7
1030	67.2
1060	67.3
1090	66.8
1120	65.9
1150	64.2
1180	59.8
1220	51.2
1250	62.4
1280	67.9
1320	69.6
1360	68.7
1400	66.3
1450	67.4
1500	71.8
1550	73.8
1600	72.1
1650	71.5
1700	70.1
1750	64.8
1800	62.6
1850	65.7
1900	64.6
1950	64
2000	65.9
2060	67.4
2120	67.2
2180	63.9
2240	65.5
2300	68.8
2360	66.5
2400	61.5
2500	63.4
2580	62.7
2650	62.4
2720	61.5
2800	63.8
2900	62.7
3000	62
3070	63.2
3150	57.4
3250	59.6
3350	60.3
3450	55.9
3550	59.1
3650	59.3
3750	63.4
3870	62.6
4000	64.4
4120	62.1
4250	56.9
4370	61
4500	59.1
4620	58.9
4750	60.1
4870	56.9
5000	61
5150	61.5
5300	65.5
5450	60.8
5600	57.5
5800	61.5
6000	57.3
6150	57.8
6300	60.2
6500	57.2
6700	56
6900	57.2
7100	58.6
7300	60
7500	55.9
7750	57.7
8000	57.4
8250	59.4
8500	57.3
8750	53
9000	51.8
9250	56.1
9500	57.7
9750	59.6
10000	63.8
10300	65.3
10600	62.6
10900	58.8
11200	60.2
11500	59
11800	54.2
12200	56.9
12500	59.8
12800	58.2
13200	51.7
13600	44.1
14000	48.1
14500	50
15000	50.4
15500	53
16000	45.7
16500	43
17000	38.1
17500	39.7
18000	39
18500	36.8
19000	36.3
19500	37.2
20000	47.9
20600	54.7
21200	49.4
21800	52.1
22400	48
