Frequency Spectrum for Input Signal

Data Shown:    V2-8 (Community)
Display Parameters:   Frequency: 1000Hz (1/24th Octave)   Mer: 0°  Par: 30°

Freq [Hz]	Signal Level [dBSPL]
22.4	56.6
23	57.1
23.6	57.5
24	58.1
25	58.6
25.8	59.1
26.5	59.6
27.2	60.1
28	60.5
29	61
30	61.4
30.7	61.9
31.5	62.4
32.5	62.9
33.5	63.4
34.5	63.8
35.5	64.2
36.5	64.7
37.5	65.2
38.7	65.7
40	66.1
41.2	66.5
42.5	67
43.7	67.5
45	68
46.2	68.4
47.5	68.9
48.7	69.4
50	69.9
51.5	70.3
53	70.8
54.5	71.3
56	71.8
58	72.2
60	72.7
61.5	73.2
63	73.7
65	74.1
67	74.6
69	75.1
71	75.6
73	76.1
75	76.5
77.5	77
80	77.4
82.5	77.9
85	78.4
87.5	78.8
90	79.2
92.5	79.6
95	80
97.5	80.4
100	80.8
103	81.2
106	81.5
109	81.8
112	82.1
115	82.4
118	82.6
122	82.8
125	83
128	83.1
132	83.1
136	83.2
140	83.1
145	83.1
150	82.9
155	82.7
160	82.4
165	82.1
170	81.8
175	81.4
180	81
185	80.6
190	80.3
195	80
200	79.9
206	79.8
212	79.7
218	79.6
224	79.5
230	79.3
236	79.1
240	79
250	79.2
258	79.8
265	80.7
272	81.8
280	82.9
290	83.8
300	84.6
307	85.1
315	85.4
325	85.5
335	85.4
345	85.2
355	84.9
365	84.5
375	84.2
387	83.9
400	83.5
412	83.3
425	83.3
437	83.6
450	84.1
462	84.6
475	84.7
487	84.4
500	83.9
515	83.4
530	83.2
545	83.4
560	83.7
580	84
600	84.2
615	84.2
630	83.9
650	82.7
670	80.3
690	76.9
710	76.5
730	80.4
750	82.8
775	82.9
800	82.4
825	83.1
850	83.9
875	83.8
900	83.1
925	82.2
950	81.5
975	80.7
1000	80
1030	79.9
1060	79.9
1090	79.5
1120	79.3
1150	79
1180	78.7
1220	78.2
1250	79.5
1280	80.8
1320	80.7
1360	80.1
1400	80.3
1450	81.7
1500	82.4
1550	82.9
1600	82.4
1650	83.8
1700	84.5
1750	84.2
1800	84.6
1850	85.1
1900	85.7
1950	85.4
2000	85.5
2060	85.9
2120	86.2
2180	86.3
2240	86
2300	85.5
2360	84.2
2400	81.4
2500	81
2580	80.7
2650	80.5
2720	81.2
2800	81.5
2900	81
3000	79.8
3070	78.1
3150	76.8
3250	76.9
3350	76.7
3450	77
3550	77.7
3650	77.6
3750	78.8
3870	79.4
4000	80.4
4120	80.2
4250	81
4370	81.2
4500	81.2
4620	78.9
4750	77.3
4870	77.3
5000	76.9
5150	79.6
5300	81.5
5450	82.1
5600	81.7
5800	84.5
6000	84.2
6150	85.1
6300	86.1
6500	84.7
6700	83.6
6900	84.1
7100	83.4
7300	84.2
7500	83.6
7750	83.7
8000	84.7
8250	81.9
8500	82.6
8750	81.8
9000	85.2
9250	88.8
9500	86.4
9750	84.3
10000	85.6
10300	86.9
10600	86.5
10900	82.4
11200	81.2
11500	80.2
11800	78.1
12200	82.3
12500	81.7
12800	77.1
13200	68.3
13600	67.8
14000	72
14500	73.1
15000	71
15500	74.3
16000	74.5
16500	74.6
17000	67.9
17500	61.8
18000	66.9
18500	64.7
19000	59.1
19500	58
20000	54.2
20600	60.6
21200	55.2
21800	55.9
22400	55.7
