Frequency Spectrum for Input Signal

Data Shown:    V2-3594 (Community)
Display Parameters:   Frequency: 1000Hz (1/24th Octave)   Mer: 0°  Par: 100°

Freq [Hz]	Signal Level [dBSPL]
22.4	73
23	73.3
23.6	73.7
24	74
25	74.4
25.8	74.7
26.5	75.1
27.2	75.4
28	75.7
29	76
30	76.2
30.7	76.6
31.5	76.9
32.5	77.2
33.5	77.6
34.5	77.8
35.5	78.1
36.5	78.5
37.5	78.8
38.7	79.2
40	79.5
41.2	79.8
42.5	80.2
43.7	80.5
45	80.9
46.2	81.2
47.5	81.6
48.7	81.9
50	82.4
51.5	82.7
53	83.1
54.5	83.5
56	83.9
58	84.2
60	84.6
61.5	85
63	85.5
65	85.9
67	86.3
69	86.7
71	87.1
73	87.6
75	88.1
77.5	88.5
80	89
82.5	89.4
85	89.9
87.5	90.4
90	90.9
92.5	91.4
95	91.8
97.5	92.2
100	92.5
103	92.8
106	93.1
109	93.1
112	93.1
115	93.1
118	93
122	92.9
125	92.8
128	92.5
132	92.3
136	92
140	91.6
145	91.2
150	90.9
155	90.4
160	89.9
165	89.2
170	88.5
175	87.9
180	87.3
185	86.7
190	86.4
195	86.5
200	86.9
206	87.6
212	88.4
218	88.9
224	89.1
230	89.1
236	89
240	88.7
250	88.2
258	87.6
265	86.7
272	85.7
280	84.6
290	83.8
300	83.5
307	84
315	85
325	85.8
335	86.5
345	86.9
355	87.1
365	87.5
375	87.9
387	88.3
400	88.4
412	88.2
425	87.7
437	87
450	86.4
462	86.3
475	86.5
487	86.8
500	86.8
515	86
530	84.5
545	83.8
560	84
580	84.4
600	84.6
615	84
630	82.7
650	81
670	79.5
690	79
710	79.4
730	79.6
750	78.8
775	77.6
800	77.2
825	76.9
850	76.3
875	76
900	76.2
925	76.1
950	75.1
975	74.7
1000	74.9
1030	74.4
1060	73.5
1090	73.4
1120	73.8
1150	73.5
1180	72.3
1220	70.4
1250	68.7
1280	68.1
1320	69.2
1360	71
1400	71.3
1450	70.5
1500	71.7
1550	72.7
1600	72.7
1650	71.7
1700	71.3
1750	72
1800	73.6
1850	74.7
1900	73.2
1950	69.7
2000	66.1
2060	66.3
2120	67.6
2180	67.7
2240	66.9
2300	69.5
2360	70.4
2400	69.3
2500	69.5
2580	72.5
2650	72.9
2720	72.1
2800	69.6
2900	64.2
3000	60.2
3070	66.2
3150	65.8
3250	71
3350	72.2
3450	75.3
3550	74
3650	70.8
3750	65.2
3870	61.1
4000	66
4120	67.8
4250	67.2
4370	63.7
4500	62.5
4620	66
4750	67.9
4870	69.4
5000	69.6
5150	66.2
5300	62.4
5450	61.6
5600	71.7
5800	78.2
6000	73.5
6150	68.9
6300	73.1
6500	74.6
6700	68.4
6900	67.1
7100	68.7
7300	68
7500	66.4
7750	60.3
8000	68.4
8250	70.5
8500	65.3
8750	63.9
9000	70.8
9250	66.6
9500	62.2
9750	65.7
10000	62.7
10300	62.6
10600	64.5
10900	58.6
11200	66.1
11500	63.3
11800	59.5
12200	62.4
12500	58.2
12800	54.5
13200	53.6
13600	62.4
14000	61.7
14500	63.9
15000	63.1
15500	65
16000	62.1
16500	58.4
17000	48.3
17500	52.3
18000	49.6
18500	45.4
19000	47.7
19500	47.6
20000	46
20600	53.6
21200	57.7
21800	59.3
22400	70
