Frequency Spectrum for Input Signal

Data Shown:    V2-3594 (Community)
Display Parameters:   Frequency: 1000Hz (1/24th Octave)   Mer: 270°  Par: 130°

Freq [Hz]	Signal Level [dBSPL]
22.4	74.6
23	75
23.6	75.4
24	75.7
25	76.1
25.8	76.4
26.5	76.8
27.2	77
28	77.3
29	77.6
30	77.9
30.7	78.2
31.5	78.6
32.5	78.9
33.5	79.2
34.5	79.4
35.5	79.7
36.5	80.1
37.5	80.4
38.7	80.8
40	81.1
41.2	81.4
42.5	81.7
43.7	82.1
45	82.4
46.2	82.7
47.5	83
48.7	83.4
50	83.8
51.5	84.2
53	84.5
54.5	84.9
56	85.3
58	85.6
60	86
61.5	86.4
63	86.8
65	87.2
67	87.6
69	88.1
71	88.5
73	88.9
75	89.4
77.5	89.8
80	90.3
82.5	90.7
85	91.2
87.5	91.7
90	92.2
92.5	92.7
95	93.1
97.5	93.4
100	93.8
103	94.1
106	94.4
109	94.4
112	94.4
115	94.4
118	94.3
122	94.2
125	94.1
128	93.9
132	93.6
136	93.3
140	92.9
145	92.6
150	92.2
155	91.7
160	91
165	90.2
170	89.3
175	88.3
180	87.1
185	85.7
190	84.2
195	83.2
200	83.1
206	84.3
212	86.2
218	87.6
224	88.8
230	89.6
236	90.1
240	90.5
250	90.6
258	90.5
265	90.1
272	89.5
280	88.6
290	87.3
300	85.6
307	83.9
315	83.1
325	83.5
335	84.7
345	85.8
355	86.6
365	87.1
375	87.2
387	87.2
400	86.9
412	86.2
425	85.5
437	84.7
450	83.7
462	82.4
475	81.7
487	82.8
500	84.6
515	85.2
530	84.5
545	83.9
560	83.2
580	82.5
600	82.1
615	81.9
630	81.4
650	80.2
670	78.6
690	76.2
710	73.5
730	72.4
750	73.2
775	73.7
800	74.2
825	74.9
850	75.1
875	75
900	75.2
925	76.3
950	77.4
975	77.8
1000	77
1030	75.6
1060	75.2
1090	75.6
1120	76.3
1150	76
1180	74.9
1220	73.9
1250	75.1
1280	76.6
1320	77.2
1360	76.4
1400	74.4
1450	73.8
1500	74
1550	73.8
1600	73.1
1650	72.3
1700	72.9
1750	72.5
1800	70.6
1850	70.6
1900	71.7
1950	72.9
2000	73.2
2060	73.1
2120	72.2
2180	70.4
2240	70.2
2300	70.1
2360	66.2
2400	59.3
2500	52.4
2580	55.6
2650	62.4
2720	66.3
2800	68
2900	70.8
3000	70.8
3070	68.3
3150	66.6
3250	65.7
3350	56.4
3450	60.8
3550	64.5
3650	59.8
3750	53.4
3870	53.8
4000	58.9
4120	60.1
4250	62.1
4370	59.4
4500	60.5
4620	62.1
4750	63
4870	62.8
5000	58.7
5150	66.1
5300	64.5
5450	55.2
5600	67.1
5800	64.9
6000	64.9
6150	66
6300	62.7
6500	59.9
6700	56.6
6900	59.4
7100	60.4
7300	57.4
7500	59.5
7750	56.7
8000	63
8250	60
8500	61
8750	59.4
9000	59.8
9250	51.8
9500	59.3
9750	55.5
10000	60.6
10300	57.5
10600	61.5
10900	61.2
11200	59.8
11500	60.5
11800	57.8
12200	53.3
12500	54.6
12800	51.7
13200	51.8
13600	53.8
14000	54.2
14500	54.2
15000	54.4
15500	54.9
16000	51.2
16500	46.7
17000	46.6
17500	45.7
18000	44.4
18500	44.1
19000	44
19500	37.5
20000	47.4
20600	46.7
21200	55
21800	51.4
22400	57.8
