Frequency Spectrum for Input Signal

Data Shown:    V2-3594 (Community)
Display Parameters:   Frequency: 1000Hz (1/24th Octave)   Mer: 0°  Par: 130°

Freq [Hz]	Signal Level [dBSPL]
22.4	73.5
23	73.8
23.6	74.2
24	74.6
25	75
25.8	75.3
26.5	75.6
27.2	75.9
28	76.2
29	76.5
30	76.8
30.7	77.1
31.5	77.4
32.5	77.7
33.5	78
34.5	78.3
35.5	78.5
36.5	78.9
37.5	79.2
38.7	79.6
40	79.8
41.2	80.1
42.5	80.4
43.7	80.8
45	81.1
46.2	81.4
47.5	81.7
48.7	82.1
50	82.4
51.5	82.8
53	83.1
54.5	83.5
56	83.9
58	84.2
60	84.5
61.5	84.9
63	85.3
65	85.7
67	86.1
69	86.5
71	86.9
73	87.3
75	87.8
77.5	88.2
80	88.7
82.5	89.1
85	89.6
87.5	90.1
90	90.6
92.5	91
95	91.5
97.5	91.8
100	92.2
103	92.4
106	92.7
109	92.8
112	92.8
115	92.8
118	92.7
122	92.6
125	92.5
128	92.3
132	92.1
136	91.8
140	91.5
145	91.2
150	91
155	90.6
160	90.1
165	89.5
170	88.9
175	88.4
180	87.9
185	87.3
190	86.9
195	86.7
200	86.8
206	87.3
212	87.9
218	88.3
224	88.5
230	88.6
236	88.5
240	88.4
250	88.2
258	87.7
265	87.1
272	86.2
280	85.1
290	83.5
300	81.4
307	79.1
315	77.8
325	78.5
335	79.9
345	81.1
355	81.9
365	82.3
375	82.6
387	82.6
400	82.3
412	81.6
425	80.5
437	79.1
450	77.9
462	78
475	79.6
487	81.4
500	82.4
515	81.9
530	80.3
545	79.7
560	80.8
580	82.4
600	83.3
615	83.2
630	82.3
650	81.2
670	80.2
690	79.2
710	78.6
730	78.7
750	78.4
775	77
800	74.8
825	73.1
850	72.7
875	72.6
900	73
925	73.7
950	73.2
975	72.6
1000	72.1
1030	70.7
1060	69.9
1090	70.8
1120	70.5
1150	69.4
1180	68.9
1220	67.9
1250	66.5
1280	67
1320	68.9
1360	69.7
1400	70.8
1450	71.9
1500	72
1550	70.3
1600	67.8
1650	66.4
1700	66.9
1750	66.4
1800	65.9
1850	66.8
1900	66.7
1950	64.3
2000	60.8
2060	63.5
2120	62.6
2180	59.6
2240	60.8
2300	62.7
2360	67.4
2400	68.2
2500	67.2
2580	69.7
2650	69.1
2720	67.2
2800	60
2900	61.7
3000	61.3
3070	51.7
3150	63.2
3250	62
3350	57.7
3450	69.1
3550	69
3650	63
3750	59.7
3870	55
4000	63.7
4120	60.5
4250	62.2
4370	59.3
4500	56.2
4620	54.7
4750	56.6
4870	63.2
5000	62.8
5150	61.8
5300	54.8
5450	55.5
5600	64.4
5800	73.3
6000	71.3
6150	59.8
6300	62.8
6500	65.6
6700	66.1
6900	63.2
7100	61.5
7300	59.6
7500	58.9
7750	59
8000	61.2
8250	52.4
8500	56.8
8750	57.7
9000	62.2
9250	62.2
9500	51.8
9750	61
10000	55.2
10300	62.6
10600	57.5
10900	56.2
11200	62.1
11500	54
11800	57.9
12200	56.8
12500	55
12800	52.3
13200	50.7
13600	53.3
14000	53
14500	57.4
15000	56
15500	57.6
16000	57.4
16500	53.2
17000	45.8
17500	46.7
18000	45.3
18500	46.3
19000	43.6
19500	43
20000	51.6
20600	51.2
21200	56.6
21800	60.4
22400	65.8
