Frequency Spectrum for Input Signal

Data Shown:    V2-3594 (Community)
Display Parameters:   Frequency: 1000Hz (1/24th Octave)   Mer: 90°  Par: 10°

Freq [Hz]	Signal Level [dBSPL]
22.4	72
23	72.4
23.6	72.8
24	73.2
25	73.6
25.8	74
26.5	74.4
27.2	74.7
28	75
29	75.3
30	75.6
30.7	76.1
31.5	76.5
32.5	76.9
33.5	77.2
34.5	77.5
35.5	77.8
36.5	78.3
37.5	78.7
38.7	79.1
40	79.5
41.2	79.9
42.5	80.3
43.7	80.7
45	81.2
46.2	81.6
47.5	82
48.7	82.4
50	82.9
51.5	83.4
53	83.8
54.5	84.3
56	84.8
58	85.2
60	85.6
61.5	86.2
63	86.7
65	87.2
67	87.6
69	88.2
71	88.6
73	89.2
75	89.8
77.5	90.3
80	90.9
82.5	91.4
85	92
87.5	92.6
90	93.1
92.5	93.7
95	94.2
97.5	94.6
100	95
103	95.4
106	95.7
109	95.8
112	95.9
115	95.9
118	95.8
122	95.7
125	95.6
128	95.4
132	95.1
136	94.8
140	94.3
145	94
150	93.5
155	93
160	92.4
165	91.6
170	91.1
175	90.7
180	90.6
185	90.7
190	91.2
195	92
200	93
206	94.1
212	95.1
218	95.6
224	95.7
230	95.6
236	95.4
240	95
250	94.5
258	93.8
265	93.1
272	92.5
280	92.2
290	92.3
300	92.8
307	93.4
315	94
325	94.5
335	94.8
345	94.9
355	95
365	95.1
375	95.4
387	95.8
400	96.1
412	96.4
425	96.5
437	96.6
450	96.6
462	96.5
475	96.2
487	95.5
500	94.9
515	94.3
530	93.8
545	93.9
560	94.2
580	94.4
600	94.4
615	94
630	93.7
650	93.7
670	93.9
690	94
710	93.7
730	93.2
750	92.4
775	91.4
800	90.6
825	89.9
850	89.2
875	88.6
900	88.1
925	87.9
950	87.6
975	87.5
1000	87.6
1030	87.2
1060	86.9
1090	87.2
1120	87.6
1150	88.3
1180	89.4
1220	90.2
1250	90.4
1280	90.5
1320	91
1360	91.2
1400	91.2
1450	91.8
1500	92.2
1550	92.5
1600	92.6
1650	92.2
1700	92.1
1750	91.7
1800	91.4
1850	91.6
1900	91.7
1950	91.6
2000	91.3
2060	91.2
2120	91.6
2180	92.2
2240	92.2
2300	91.4
2360	90.2
2400	89.4
2500	90.3
2580	90.6
2650	88.9
2720	84.8
2800	79.6
2900	81.6
3000	82.3
3070	85.6
3150	87
3250	89.4
3350	91
3450	91.1
3550	90.7
3650	90.3
3750	89.6
3870	88.8
4000	89.6
4120	90.1
4250	89.9
4370	88.8
4500	89.4
4620	91.2
4750	91.8
4870	93.2
5000	94.6
5150	95.7
5300	93.4
5450	92.3
5600	93.7
5800	97.3
6000	93.7
6150	94.4
6300	96
6500	94.6
6700	91.5
6900	92.9
7100	92.9
7300	93.7
7500	93.1
7750	91.7
8000	93.1
8250	91.5
8500	92.8
8750	91.8
9000	90.4
9250	90.7
9500	91.5
9750	91.9
10000	95
10300	97.3
10600	99.6
10900	96.7
11200	99.1
11500	97.1
11800	96.9
12200	98.5
12500	97.5
12800	95.7
13200	91.6
13600	87.3
14000	86.1
14500	85.3
15000	86.9
15500	85.2
16000	81.5
16500	82.2
17000	82.8
17500	74.2
18000	67.5
18500	67.5
19000	71.9
19500	69.8
20000	74
20600	69.6
21200	74.6
21800	80.3
22400	75
