Frequency Spectrum for Input Signal

Data Shown:    V2-3594 (Community)
Display Parameters:   Frequency: 1000Hz (1/24th Octave)   Mer: 90°  Par: 70°

Freq [Hz]	Signal Level [dBSPL]
22.4	71
23	71.3
23.6	71.7
24	72
25	72.4
25.8	72.8
26.5	73.1
27.2	73.4
28	73.6
29	73.9
30	74.2
30.7	74.6
31.5	74.9
32.5	75.2
33.5	75.5
34.5	75.8
35.5	76
36.5	76.4
37.5	76.8
38.7	77.2
40	77.5
41.2	77.8
42.5	78.1
43.7	78.5
45	78.9
46.2	79.2
47.5	79.6
48.7	80
50	80.4
51.5	80.8
53	81.2
54.5	81.6
56	82
58	82.4
60	82.8
61.5	83.3
63	83.8
65	84.2
67	84.6
69	85.1
71	85.6
73	86
75	86.6
77.5	87.1
80	87.6
82.5	88.1
85	88.6
87.5	89.1
90	89.7
92.5	90.2
95	90.6
97.5	91
100	91.4
103	91.7
106	92
109	92.1
112	92.1
115	92
118	92
122	91.8
125	91.6
128	91.3
132	91
136	90.6
140	90.1
145	89.6
150	89.1
155	88.4
160	87.6
165	86.8
170	86.2
175	85.8
180	85.9
185	86.3
190	87
195	88.1
200	89.2
206	90.4
212	91.4
218	91.9
224	92
230	91.9
236	91.6
240	91.1
250	90.5
258	89.6
265	88.4
272	87
280	85.8
290	84.9
300	84.9
307	85.6
315	86.7
325	87.6
335	88.2
345	88.5
355	88.3
365	87.8
375	87.2
387	86.7
400	86.1
412	85.8
425	85.9
437	86
450	86.1
462	86.1
475	85.6
487	84.4
500	82.2
515	79.2
530	77
545	77.9
560	79.1
580	79.8
600	80.1
615	80.4
630	80.5
650	80.3
670	79.7
690	78.6
710	77.8
730	78.5
750	79.2
775	79.1
800	78.9
825	78.8
850	78.2
875	77.5
900	77.5
925	78
950	78.2
975	77.9
1000	77.8
1030	77.9
1060	78.5
1090	79.7
1120	80.3
1150	79.9
1180	78.8
1220	76.6
1250	73.6
1280	72.6
1320	74.6
1360	76.4
1400	77.2
1450	77.7
1500	78.8
1550	77.8
1600	76.4
1650	73.2
1700	70.3
1750	75.2
1800	78
1850	78.4
1900	75.8
1950	73.2
2000	72.4
2060	75.6
2120	78.2
2180	78.9
2240	78.4
2300	77.4
2360	77.2
2400	75.1
2500	74.7
2580	78
2650	76.1
2720	72.4
2800	80.9
2900	81.2
3000	83.6
3070	83.9
3150	81.9
3250	78.9
3350	84.4
3450	82.7
3550	72.3
3650	73.6
3750	79.2
3870	79
4000	73.1
4120	72.9
4250	73.3
4370	73.2
4500	76.5
4620	75.1
4750	70.7
4870	74.8
5000	76.5
5150	77.3
5300	74.2
5450	70.5
5600	75.7
5800	78.7
6000	72.8
6150	72.4
6300	77
6500	75.5
6700	71
6900	71.9
7100	76.6
7300	77.4
7500	78.4
7750	74
8000	74.2
8250	70.9
8500	80
8750	73.4
9000	76.5
9250	69.9
9500	73.2
9750	74.4
10000	70
10300	77.2
10600	75.1
10900	70.8
11200	71.7
11500	68.9
11800	72.7
12200	75.6
12500	76.3
12800	69.2
13200	66.7
13600	57.4
14000	60.4
14500	63.8
15000	67.4
15500	69.6
16000	67.1
16500	69.3
17000	68.1
17500	59.9
18000	59.8
18500	59.8
19000	62
19500	59
20000	58.2
20600	55.8
21200	57.3
21800	66.5
22400	59.6
