Frequency Spectrum for Input Signal

Data Shown:    V2-3594 (Community)
Display Parameters:   Frequency: 1000Hz (1/24th Octave)   Mer: 270°  Par: 40°

Freq [Hz]	Signal Level [dBSPL]
22.4	71.9
23	72.2
23.6	72.6
24	73
25	73.4
25.8	73.8
26.5	74.2
27.2	74.5
28	74.8
29	75.1
30	75.5
30.7	76
31.5	76.4
32.5	76.8
33.5	77.2
34.5	77.5
35.5	77.9
36.5	78.4
37.5	78.9
38.7	79.4
40	79.8
41.2	80.2
42.5	80.6
43.7	81.2
45	81.6
46.2	82
47.5	82.5
48.7	83
50	83.5
51.5	84
53	84.5
54.5	85
56	85.5
58	86
60	86.4
61.5	87
63	87.5
65	88
67	88.6
69	89.1
71	89.6
73	90.2
75	90.8
77.5	91.3
80	91.9
82.5	92.4
85	93
87.5	93.6
90	94.2
92.5	94.7
95	95.3
97.5	95.7
100	96.1
103	96.5
106	96.8
109	97
112	97.1
115	97.1
118	97.1
122	97
125	96.9
128	96.8
132	96.5
136	96.2
140	95.9
145	95.5
150	95.2
155	94.6
160	93.9
165	93
170	92.1
175	91.1
180	90.1
185	89.1
190	88.6
195	88.8
200	89.8
206	91.3
212	92.8
218	93.7
224	94.3
230	94.6
236	94.7
240	94.6
250	94.4
258	93.9
265	93.3
272	92.6
280	92.1
290	91.9
300	92
307	92.3
315	92.9
325	93.3
335	93.6
345	93.8
355	93.9
365	94.2
375	94.4
387	94.4
400	94.4
412	94.2
425	94
437	94.2
450	94.6
462	94.7
475	94.4
487	93.6
500	92.8
515	92.8
530	93.2
545	94.4
560	95.6
580	96.2
600	96.1
615	95.3
630	93.9
650	92.2
670	90.4
690	88.3
710	86.2
730	83.8
750	81.1
775	78.2
800	76
825	75.7
850	77.4
875	80.4
900	82.7
925	84.4
950	85.9
975	87.5
1000	88.4
1030	88.9
1060	89.2
1090	89.2
1120	89.1
1150	89.2
1180	88.5
1220	87.1
1250	85.9
1280	85.5
1320	85.4
1360	84.5
1400	83.3
1450	83.5
1500	84.5
1550	84.9
1600	84.9
1650	84.7
1700	84.6
1750	84.1
1800	81.8
1850	79.9
1900	79.3
1950	80.6
2000	80.2
2060	77.7
2120	78.1
2180	80.2
2240	78.7
2300	75.4
2360	71.2
2400	70
2500	68.9
2580	68.7
2650	78.3
2720	84.6
2800	89
2900	90.4
3000	89.3
3070	88.3
3150	87.7
3250	87.7
3350	86.7
3450	87.9
3550	89.4
3650	89.8
3750	88.5
3870	86.7
4000	83.7
4120	83
4250	80.4
4370	75.9
4500	79.1
4620	78.7
4750	77.9
4870	81.6
5000	83.4
5150	83.7
5300	81.4
5450	75.9
5600	81.3
5800	86.9
6000	86.1
6150	85.9
6300	85.2
6500	82.2
6700	79.5
6900	82.9
7100	80.6
7300	78
7500	80.4
7750	83.8
8000	87
8250	85.2
8500	85.6
8750	82.7
9000	81.7
9250	82.6
9500	72.7
9750	79.7
10000	84.5
10300	83.5
10600	77.1
10900	78.5
11200	81.4
11500	80.3
11800	84.9
12200	85.1
12500	82
12800	76.1
13200	71.8
13600	71
14000	63.3
14500	73.3
15000	76.9
15500	80.7
16000	80.2
16500	79.1
17000	75.9
17500	73
18000	73.5
18500	72.1
19000	74.4
19500	69.6
20000	63
20600	57.6
21200	64.3
21800	64
22400	67.1
