Frequency Spectrum for Input Signal

Data Shown:    V2-3594 (Community)
Display Parameters:   Frequency: 1000Hz (1/24th Octave)   Mer: 90°  Par: 130°

Freq [Hz]	Signal Level [dBSPL]
22.4	71.7
23	72.1
23.6	72.5
24	72.9
25	73.2
25.8	73.6
26.5	73.9
27.2	74.2
28	74.5
29	74.8
30	75
30.7	75.4
31.5	75.7
32.5	76
33.5	76.3
34.5	76.5
35.5	76.8
36.5	77.1
37.5	77.5
38.7	77.8
40	78.1
41.2	78.4
42.5	78.7
43.7	79
45	79.3
46.2	79.6
47.5	79.9
48.7	80.3
50	80.6
51.5	81
53	81.3
54.5	81.7
56	82
58	82.4
60	82.7
61.5	83.1
63	83.5
65	83.9
67	84.3
69	84.7
71	85.1
73	85.5
75	86
77.5	86.5
80	86.9
82.5	87.3
85	87.8
87.5	88.3
90	88.8
92.5	89.3
95	89.7
97.5	90.1
100	90.4
103	90.7
106	91
109	91
112	91
115	91
118	91
122	90.8
125	90.7
128	90.5
132	90.2
136	89.9
140	89.6
145	89.3
150	89
155	88.7
160	88.2
165	87.7
170	87.3
175	87
180	86.8
185	86.7
190	86.9
195	87.3
200	87.9
206	88.8
212	89.7
218	90.1
224	90.3
230	90.4
236	90.3
240	90.2
250	89.9
258	89.4
265	88.7
272	87.8
280	86.7
290	85.3
300	83.6
307	82
315	81.3
325	81.8
335	82.8
345	83.8
355	84.3
365	84.6
375	84.7
387	84.6
400	84.3
412	84
425	83.5
437	82.8
450	81.9
462	81.4
475	81.4
487	81.9
500	82.1
515	81.1
530	78.5
545	75.9
560	74.3
580	74.1
600	74.5
615	73.4
630	69.7
650	64.1
670	64.6
690	68.7
710	71.1
730	72
750	71.4
775	70.6
800	70.2
825	69.4
850	69.6
875	72
900	74
925	75.2
950	76.1
975	76.5
1000	74.4
1030	71.9
1060	71.1
1090	71
1120	71.2
1150	70.7
1180	68.7
1220	66.3
1250	65.4
1280	66.6
1320	67.4
1360	67.6
1400	67.7
1450	67.7
1500	69.2
1550	70.1
1600	70.4
1650	71.8
1700	72.9
1750	72.7
1800	71.9
1850	70.9
1900	69
1950	67.8
2000	67.4
2060	66.3
2120	63.8
2180	65.1
2240	69.2
2300	70
2360	67.7
2400	66.6
2500	65.2
2580	64.3
2650	57.1
2720	68.5
2800	73.7
2900	75
3000	74
3070	72.7
3150	69.7
3250	62.6
3350	57.8
3450	68.2
3550	73.5
3650	73.1
3750	67.6
3870	60.9
4000	67.8
4120	69.2
4250	63.3
4370	65.4
4500	66.2
4620	63.5
4750	61.6
4870	66.6
5000	65.4
5150	64.9
5300	68.2
5450	67.4
5600	68.9
5800	71.4
6000	69.7
6150	66.2
6300	65.1
6500	67.5
6700	60.4
6900	59.3
7100	63.8
7300	69.2
7500	67.5
7750	66.9
8000	70.5
8250	66.4
8500	67.4
8750	66.5
9000	62.9
9250	59.7
9500	63.9
9750	61
10000	65.5
10300	63.4
10600	64.9
10900	63.3
11200	65.4
11500	62.1
11800	63.6
12200	63.7
12500	64.2
12800	60.8
13200	55.4
13600	54.3
14000	52.9
14500	56
15000	57.5
15500	58
16000	54.7
16500	56
17000	49.4
17500	46.2
18000	45.5
18500	45.7
19000	47
19500	49.3
20000	49.6
20600	53.7
21200	56.8
21800	58.5
22400	58.4
