Frequency Spectrum for Input Signal

Data Shown:    V2-3594 (Community)
Display Parameters:   Frequency: 1000Hz (1/24th Octave)   Mer: 270°  Par: 60°

Freq [Hz]	Signal Level [dBSPL]
22.4	72.9
23	73.2
23.6	73.5
24	73.9
25	74.2
25.8	74.6
26.5	74.9
27.2	75.2
28	75.5
29	75.8
30	76.1
30.7	76.6
31.5	77
32.5	77.4
33.5	77.7
34.5	78
35.5	78.4
36.5	78.8
37.5	79.3
38.7	79.7
40	80.1
41.2	80.5
42.5	81
43.7	81.5
45	81.9
46.2	82.3
47.5	82.7
48.7	83.2
50	83.8
51.5	84.2
53	84.6
54.5	85.1
56	85.6
58	86.1
60	86.5
61.5	87.1
63	87.6
65	88.1
67	88.6
69	89.1
71	89.6
73	90.1
75	90.7
77.5	91.2
80	91.7
82.5	92.2
85	92.8
87.5	93.4
90	93.9
92.5	94.5
95	95
97.5	95.4
100	95.8
103	96.1
106	96.4
109	96.6
112	96.6
115	96.6
118	96.6
122	96.5
125	96.4
128	96.2
132	95.9
136	95.6
140	95.2
145	94.9
150	94.4
155	93.9
160	93.1
165	92.1
170	91
175	89.8
180	88.4
185	86.9
190	85.8
195	85.9
200	87.2
206	89.2
212	91.1
218	92.3
224	93.1
230	93.6
236	93.8
240	93.8
250	93.5
258	93
265	92.3
272	91.5
280	90.7
290	90.1
300	90
307	90.4
315	91
325	91.6
335	92
345	92.2
355	92.4
365	92.5
375	92.5
387	92.4
400	92.2
412	91.8
425	91.4
437	91.4
450	91.5
462	91.6
475	91.2
487	90.4
500	89.7
515	90
530	90.4
545	91.4
560	92.1
580	92.2
600	91.3
615	89.6
630	86.9
650	83.1
670	77.5
690	67.4
710	67.8
730	74.3
750	78.7
775	81.4
800	83.1
825	84.2
850	85
875	85.7
900	86.4
925	87.2
950	88.1
975	88.6
1000	88.5
1030	87.7
1060	86.9
1090	86.2
1120	85.4
1150	84.3
1180	83
1220	81.4
1250	81.3
1280	82.1
1320	83.1
1360	82.6
1400	81.1
1450	82
1500	84.8
1550	86.3
1600	86.3
1650	85.8
1700	85.7
1750	85.4
1800	83
1850	81.4
1900	80
1950	78.8
2000	79.3
2060	79
2120	80.8
2180	82.6
2240	82.1
2300	81
2360	81.5
2400	81.2
2500	78.5
2580	75.2
2650	70.9
2720	54.7
2800	70
2900	75.4
3000	70
3070	59.8
3150	68.6
3250	65.2
3350	77.7
3450	80
3550	75.2
3650	77.8
3750	79.4
3870	77.7
4000	77.9
4120	80.8
4250	81.9
4370	82.6
4500	83.4
4620	83
4750	82.9
4870	81.9
5000	79.5
5150	80.3
5300	79.9
5450	79.8
5600	81.3
5800	83.3
6000	74
6150	72.8
6300	81.4
6500	81.9
6700	80.8
6900	81.3
7100	81.1
7300	78.3
7500	77.6
7750	75.5
8000	78.2
8250	73.7
8500	76.4
8750	81.3
9000	77.2
9250	69.9
9500	72.3
9750	77.9
10000	82.5
10300	81.9
10600	77.3
10900	67.6
11200	79
11500	78.8
11800	82.8
12200	83.6
12500	76.5
12800	69.1
13200	72.3
13600	71.9
14000	66.8
14500	72.5
15000	70.9
15500	70.8
16000	77.1
16500	79.3
17000	74.7
17500	61.6
18000	63.3
18500	68.9
19000	69.6
19500	60.9
20000	56.3
20600	61.5
21200	62
21800	53.6
22400	63.9
