"CEA2034"
"On Axis"		"Listening Window"		"Early Reflections"		"Sound Power"		"Sound Power DI"		"Early Reflections DI"		"DI offset"
"Frequency / Hz"	"Sound Pressure Level / dB (re 20 µPa/V)  [2.83  V @ 1. m]"	"Frequency / Hz"	"Sound Pressure Level / dB (re 20 µPa/V)  [2.83  V @ 1. m]"	"Frequency / Hz"	"Sound Pressure Level / dB (re 20 µPa/V)  [2.83  V @ 1. m]"	"Frequency / Hz"	"Sound Pressure Level / dB (re 20 µPa/V)  [2.83  V @ 1. m]"	"Frequency / Hz"	"Sound Pressure Level / dB (re 20 µPa/V)  [2.83  V @ 1. m]"	"Frequency / Hz"	"Sound Pressure Level / dB (re 20 µPa/V)  [2.83  V @ 1. m]"	"Frequency / Hz"	"Sound Pressure Level / dB (re 20 µPa/V)  [2.83  V @ 1. m]"
20.5078	56.4286	20.5078	56.2578	20.5078	57.6085	20.5078	58.7079	20.5078	37.5499	20.5078	38.6493	20.5078	40
21.9727	58.8364	21.9727	58.7249	21.9727	59.8633	21.9727	60.8081	21.9727	37.9168	21.9727	38.8616	21.9727	40
23.4375	60.6257	23.4375	60.5654	23.4375	62.2711	23.4375	63.5025	23.4375	37.0629	23.4375	38.2943	23.4375	40
24.9023	62.7601	24.9023	62.7364	24.9023	64.2981	24.9023	65.4416	24.9023	37.2948	24.9023	38.4383	24.9023	40
26.3672	65.3455	26.3672	65.3294	26.3672	66.5016	26.3672	67.4285	26.3672	37.9009	26.3672	38.8278	26.3672	40
27.832	67.0702	27.832	67.0665	27.832	68.1896	27.832	69.0834	27.832	37.9831	27.832	38.8769	27.832	40
29.2969	68.6205	29.2969	68.6242	29.2969	69.65	29.2969	70.4841	29.2969	38.1401	29.2969	38.9742	29.2969	40
30.7617	70.1233	30.7617	70.1388	30.7617	71.1197	30.7617	71.9174	30.7617	38.2214	30.7617	39.0191	30.7617	40
32.2266	71.6137	32.2266	71.6359	32.2266	72.5134	32.2266	73.2422	32.2266	38.3937	32.2266	39.1225	32.2266	40
33.6914	72.8349	33.6914	72.8567	33.6914	73.6162	33.6914	74.2644	33.6914	38.5923	33.6914	39.2405	33.6914	40
35.1562	73.8773	35.1562	73.9013	35.1562	74.6021	35.1562	75.2094	35.1562	38.692	35.1562	39.2993	35.1562	40
36.6211	74.8208	36.6211	74.8458	36.6211	75.4731	36.6211	76.0245	36.6211	38.8213	36.6211	39.3727	36.6211	40
38.0859	75.6138	38.0859	75.6394	38.0859	76.2073	38.0859	76.7148	38.0859	38.9246	38.0859	39.4321	38.0859	40
39.5508	76.3461	39.5508	76.37	39.5508	76.8619	39.5508	77.3121	39.5508	39.0579	39.5508	39.5081	39.5508	40
41.0156	76.8858	41.0156	76.9117	41.0156	77.3987	41.0156	77.8467	41.0156	39.065	41.0156	39.513	41.0156	40
42.4805	77.4549	42.4805	77.4807	42.4805	77.8904	42.4805	78.2742	42.4805	39.2064	42.4805	39.5902	42.4805	40
43.9453	77.9113	43.9453	77.9344	43.9453	78.288	43.9453	78.6273	43.9453	39.3071	43.9453	39.6465	43.9453	40
45.4102	78.3523	45.4102	78.3759	45.4102	78.7065	45.4102	79.0269	45.4102	39.3489	45.4102	39.6694	45.4102	40
46.875	78.7197	46.875	78.7433	46.875	79.0518	46.875	79.3532	46.875	39.3901	46.875	39.6916	46.875	40
48.3398	78.9943	48.3398	79.0179	48.3398	79.3008	48.3398	79.5813	48.3398	39.4366	48.3398	39.7171	48.3398	40
51.2695	79.5505	51.2695	79.5735	51.2695	79.803	51.2695	80.0389	51.2695	39.5346	51.2695	39.7705	51.2695	40
52.7344	79.8768	52.7344	79.896	52.7344	80.0753	52.7344	80.2666	52.7344	39.6293	52.7344	39.8207	52.7344	40
54.1992	80.1218	54.1992	80.1387	54.1992	80.2882	54.1992	80.4563	54.1992	39.6825	54.1992	39.8505	54.1992	40
55.6641	80.2589	55.6641	80.2779	55.6641	80.4296	55.6641	80.5971	55.6641	39.6808	55.6641	39.8483	55.6641	40
58.5938	80.6367	58.5938	80.6571	58.5938	80.8034	58.5938	80.9676	58.5938	39.6895	58.5938	39.8537	58.5938	40
60.0586	80.8124	60.0586	80.8321	60.0586	80.9575	60.0586	81.1028	60.0586	39.7293	60.0586	39.8746	60.0586	40
62.9883	81.0526	62.9883	81.0721	62.9883	81.1831	62.9883	81.3177	62.9883	39.7545	62.9883	39.8891	62.9883	40
64.4531	81.0782	64.4531	81.0981	64.4531	81.2015	64.4531	81.3294	64.4531	39.7688	64.4531	39.8966	64.4531	40
67.3828	81.2497	67.3828	81.2689	67.3828	81.357	67.3828	81.4726	67.3828	39.7962	67.3828	39.9119	67.3828	40
68.8477	81.2693	68.8477	81.2892	68.8477	81.3849	68.8477	81.5089	68.8477	39.7803	68.8477	39.9043	68.8477	40
71.7773	81.5503	71.7773	81.5647	71.7773	81.6009	71.7773	81.6706	71.7773	39.8942	71.7773	39.9638	71.7773	40
74.707	81.7852	74.707	81.7975	74.707	81.8026	74.707	81.8432	74.707	39.9544	74.707	39.995	74.707	40
77.6367	81.8744	77.6367	81.8849	77.6367	81.8653	77.6367	81.8827	77.6367	40.0022	77.6367	40.0196	77.6367	40
79.1016	81.8653	79.1016	81.8747	79.1016	81.8411	79.1016	81.8463	79.1016	40.0284	79.1016	40.0336	79.1016	40
82.0312	81.7994	82.0312	81.8091	82.0312	81.7726	82.0312	81.7763	82.0312	40.0328	82.0312	40.0365	82.0312	40
84.9609	81.8195	84.9609	81.827	84.9609	81.7857	84.9609	81.7892	84.9609	40.0378	84.9609	40.0413	84.9609	40
87.8906	81.8823	87.8906	81.8872	87.8906	81.8279	87.8906	81.8151	87.8906	40.0721	87.8906	40.0593	87.8906	40
90.8203	82.0986	90.8203	82.0975	90.8203	81.9365	90.8203	81.8228	90.8203	40.2747	90.8203	40.161	90.8203	40
95.2148	81.7245	95.2148	81.7295	95.2148	81.6651	95.2148	81.649	95.2148	40.0805	95.2148	40.0644	95.2148	40
98.1445	81.6901	98.1445	81.6925	98.1445	81.6086	98.1445	81.5798	98.1445	40.1127	98.1445	40.0839	98.1445	40
101.074	81.5778	101.074	81.5809	101.074	81.5056	101.074	81.4815	101.074	40.0994	101.074	40.0753	101.074	40
105.469	81.8557	105.469	81.8438	105.469	81.6483	105.469	81.4929	105.469	40.3509	105.469	40.1955	105.469	40
108.398	81.9931	108.398	81.9755	108.398	81.7302	108.398	81.5295	108.398	40.446	108.398	40.2453	108.398	40
112.793	82.0534	112.793	82.0318	112.793	81.7656	112.793	81.5497	112.793	40.4821	112.793	40.2661	112.793	40
117.188	82.0556	117.188	82.0322	117.188	81.6935	117.188	81.3933	117.188	40.6389	117.188	40.3387	117.188	40
120.117	82.1635	120.117	82.1425	120.117	81.796	120.117	81.4835	120.117	40.659	120.117	40.3465	120.117	40
124.512	81.8542	124.512	81.8368	124.512	81.5658	124.512	81.3511	124.512	40.4856	124.512	40.271	124.512	40
128.906	81.7577	128.906	81.7403	128.906	81.5225	128.906	81.3711	128.906	40.3693	128.906	40.2178	128.906	40
133.301	81.8428	133.301	81.8168	133.301	81.5229	133.301	81.288	133.301	40.5288	133.301	40.2939	133.301	40
139.16	81.7653	139.16	81.734	139.16	81.4018	139.16	81.1369	139.16	40.5971	139.16	40.3322	139.16	40
143.555	81.7065	143.555	81.6716	143.555	81.3231	143.555	81.0488	143.555	40.6228	143.555	40.3485	143.555	40
147.949	81.6569	147.949	81.6163	147.949	81.2314	147.949	80.9258	147.949	40.6905	147.949	40.3849	147.949	40
153.809	81.6401	153.809	81.5945	153.809	81.1677	153.809	80.8171	153.809	40.7774	153.809	40.4268	153.809	40
159.668	81.7385	159.668	81.6873	159.668	81.2361	159.668	80.8749	159.668	40.8123	159.668	40.4512	159.668	40
165.527	81.877	165.527	81.8252	165.527	81.3944	165.527	81.0585	165.527	40.7667	165.527	40.4309	165.527	40
171.387	81.8929	171.387	81.8311	171.387	81.3644	171.387	80.9812	171.387	40.8498	171.387	40.4667	171.387	40
177.246	81.9028	177.246	81.8355	177.246	81.2746	177.246	80.7772	177.246	41.0584	177.246	40.561	177.246	40
183.105	81.5938	183.105	81.5291	183.105	80.9936	183.105	80.5496	183.105	40.9795	183.105	40.5355	183.105	40
188.965	81.5803	188.965	81.5047	188.965	80.9222	188.965	80.4269	188.965	41.0779	188.965	40.5825	188.965	40
196.289	81.8238	196.289	81.7454	196.289	81.104	196.289	80.536	196.289	41.2093	196.289	40.6413	196.289	40
203.613	81.8001	203.613	81.7087	203.613	81.0131	203.613	80.3753	203.613	41.3335	203.613	40.6956	203.613	40
210.938	81.9084	210.938	81.8237	210.938	81.0997	210.938	80.4295	210.938	41.3942	210.938	40.7241	210.938	40
218.262	81.8539	218.262	81.7738	218.262	81.0757	218.262	80.4292	218.262	41.3445	218.262	40.6981	218.262	40
225.586	81.8912	225.586	81.7948	225.586	81.0645	225.586	80.4041	225.586	41.3907	225.586	40.7303	225.586	40
232.91	82.2102	232.91	82.1012	232.91	81.2371	232.91	80.3769	232.91	41.7242	232.91	40.864	232.91	40
241.699	82.3301	241.699	82.2261	241.699	81.3428	241.699	80.422	241.699	41.8041	241.699	40.8833	241.699	40
250.488	82.1328	250.488	82.0223	250.488	81.1485	250.488	80.291	250.488	41.7312	250.488	40.8738	250.488	40
259.277	82.8377	259.277	82.7026	259.277	81.6399	259.277	80.6097	259.277	42.0929	259.277	41.0627	259.277	40
268.066	82.4742	268.066	82.3558	268.066	81.4375	268.066	80.5758	268.066	41.78	268.066	40.9183	268.066	40
276.855	82.4452	276.855	82.3314	276.855	81.3035	276.855	80.2933	276.855	42.0381	276.855	41.0279	276.855	40
287.109	82.3728	287.109	82.2704	287.109	81.2962	287.109	80.3353	287.109	41.9351	287.109	40.9742	287.109	40
297.363	82.6481	297.363	82.5008	297.363	81.3987	297.363	80.2867	297.363	42.2141	297.363	41.1021	297.363	40
307.617	83.0833	307.617	82.9658	307.617	81.8349	307.617	80.6053	307.617	42.3605	307.617	41.1309	307.617	40
319.336	82.5403	319.336	82.3924	319.336	81.3244	319.336	80.2097	319.336	42.1826	319.336	41.0679	319.336	40
329.59	82.8306	329.59	82.7196	329.59	81.5732	329.59	80.3181	329.59	42.4014	329.59	41.1464	329.59	40
341.309	82.4489	341.309	82.3254	341.309	81.32	341.309	80.2608	341.309	42.0647	341.309	41.0054	341.309	40
353.027	82.613	353.027	82.4519	353.027	81.2158	353.027	79.9009	353.027	42.551	353.027	41.2361	353.027	40
366.211	82.5228	366.211	82.3594	366.211	81.1792	366.211	79.9239	366.211	42.4355	366.211	41.1803	366.211	40
379.395	83.3612	379.395	83.1269	379.395	81.709	379.395	80.214	379.395	42.913	379.395	41.4179	379.395	40
392.578	83.5194	392.578	83.219	392.578	81.7774	392.578	80.407	392.578	42.812	392.578	41.4416	392.578	40
405.762	84.5774	405.762	84.2088	405.762	82.2898	405.762	80.4975	405.762	43.7113	405.762	41.919	405.762	40
420.41	84.5578	420.41	84.3388	420.41	82.5779	420.41	80.5251	420.41	43.8137	420.41	41.7609	420.41	40
435.059	83.2472	435.059	83.0999	435.059	81.6886	435.059	80.0727	435.059	43.0271	435.059	41.4113	435.059	40
451.172	84.0908	451.172	83.8691	451.172	82.1054	451.172	80.2035	451.172	43.6655	451.172	41.7636	451.172	40
465.82	84.1729	465.82	83.9699	465.82	82.233	465.82	80.2834	465.82	43.6865	465.82	41.7369	465.82	40
483.398	83.6517	483.398	83.474	483.398	81.7928	483.398	80.028	483.398	43.446	483.398	41.6812	483.398	40
499.512	83.4954	499.512	83.307	499.512	81.6071	499.512	79.7873	499.512	43.5197	499.512	41.6999	499.512	40
517.09	83.6255	517.09	83.4546	517.09	81.7819	517.09	79.8887	517.09	43.5659	517.09	41.6727	517.09	40
536.133	83.2421	536.133	82.9631	536.133	80.9917	536.133	79.2701	536.133	43.6931	536.133	41.9714	536.133	40
555.176	84.0348	555.176	83.8311	555.176	81.7077	555.176	79.5256	555.176	44.3055	555.176	42.1234	555.176	40
574.219	83.5878	574.219	83.4296	574.219	81.7475	574.219	79.7751	574.219	43.6545	574.219	41.6821	574.219	40
594.727	82.91	594.727	82.6211	594.727	81.1663	594.727	79.5326	594.727	43.0885	594.727	41.4548	594.727	40
615.234	84.2915	615.234	83.8631	615.234	81.8392	615.234	79.6283	615.234	44.2347	615.234	42.0238	615.234	40
637.207	84.5828	637.207	84.1366	637.207	82.1153	637.207	79.8168	637.207	44.3198	637.207	42.0213	637.207	40
659.18	85.0857	659.18	84.5776	659.18	82.069	659.18	79.4797	659.18	45.098	659.18	42.5086	659.18	40
682.617	84.9437	682.617	84.548	682.617	82.1692	682.617	79.6992	682.617	44.8488	682.617	42.3788	682.617	40
707.52	84.9266	707.52	84.4838	707.52	82.1002	707.52	79.6867	707.52	44.7971	707.52	42.3836	707.52	40
732.422	84.5354	732.422	84.1837	732.422	81.7207	732.422	79.2421	732.422	44.9417	732.422	42.463	732.422	40
757.324	84.2385	757.324	83.9014	757.324	81.6145	757.324	79.1786	757.324	44.7228	757.324	42.2869	757.324	40
785.156	84.6527	785.156	84.6269	785.156	82.2456	785.156	79.8293	785.156	44.7975	785.156	42.3813	785.156	40
811.523	84.0006	811.523	83.7025	811.523	81.1555	811.523	78.8303	811.523	44.8721	811.523	42.547	811.523	40
840.82	84.5576	840.82	84.1338	840.82	81.7214	840.82	79.4285	840.82	44.7053	840.82	42.4123	840.82	40
870.117	84.6074	870.117	84.3267	870.117	82.0856	870.117	79.7423	870.117	44.5844	870.117	42.2411	870.117	40
900.879	85.6061	900.879	85.0334	900.879	82.146	900.879	79.4635	900.879	45.5699	900.879	42.8874	900.879	40
933.105	84.6846	933.105	84.4068	933.105	81.8489	933.105	79.1739	933.105	45.2329	933.105	42.5579	933.105	40
965.332	86.5706	965.332	85.7481	965.332	82.9134	965.332	79.797	965.332	45.9511	965.332	42.8347	965.332	40
1,000.49	85.6095	1,000.49	84.9152	1,000.49	81.9733	1,000.49	79.0911	1,000.49	45.8241	1,000.49	42.9419	1,000.49	40
1,035.64	85.0465	1,035.64	84.5509	1,035.64	81.5661	1,035.64	78.5445	1,035.64	46.0064	1,035.64	42.9848	1,035.64	40
1,072.27	84.0478	1,072.27	83.5507	1,072.27	81.0061	1,072.27	78.3617	1,072.27	45.189	1,072.27	42.5447	1,072.27	40
1,108.89	84.2656	1,108.89	83.4475	1,108.89	80.5421	1,108.89	77.5677	1,108.89	45.8798	1,108.89	42.9054	1,108.89	40
1,148.44	83.4496	1,148.44	82.97	1,148.44	80.2555	1,148.44	77.498	1,148.44	45.4719	1,148.44	42.7145	1,148.44	40
1,189.45	83.3256	1,189.45	82.8753	1,189.45	80.6539	1,189.45	77.6562	1,189.45	45.2191	1,189.45	42.2214	1,189.45	40
1,230.47	83.994	1,230.47	83.3291	1,230.47	81.0647	1,230.47	78.0306	1,230.47	45.2985	1,230.47	42.2644	1,230.47	40
1,274.41	84.6743	1,274.41	84.0979	1,274.41	81.5941	1,274.41	78.7545	1,274.41	45.3434	1,274.41	42.5039	1,274.41	40
1,319.82	85.2787	1,319.82	84.5781	1,319.82	81.7618	1,319.82	78.4651	1,319.82	46.113	1,319.82	42.8163	1,319.82	40
1,366.7	85.3919	1,366.7	84.6598	1,366.7	82.6017	1,366.7	79.3046	1,366.7	45.3552	1,366.7	42.0581	1,366.7	40
1,413.57	85.6501	1,413.57	84.9642	1,413.57	82.4671	1,413.57	79.0145	1,413.57	45.9497	1,413.57	42.4971	1,413.57	40
1,463.38	84.778	1,463.38	84.5104	1,463.38	82.1272	1,463.38	78.7714	1,463.38	45.739	1,463.38	42.3832	1,463.38	40
1,516.11	84.9893	1,516.11	84.5298	1,516.11	82.3176	1,516.11	79.08	1,516.11	45.4497	1,516.11	42.2121	1,516.11	40
1,568.85	84.0549	1,568.85	83.4349	1,568.85	81.6226	1,568.85	78.4208	1,568.85	45.0141	1,568.85	41.8123	1,568.85	40
1,624.51	83.0491	1,624.51	82.7901	1,624.51	81.2495	1,624.51	77.8797	1,624.51	44.9104	1,624.51	41.5406	1,624.51	40
1,681.64	83.3308	1,681.64	83.4082	1,681.64	81.5252	1,681.64	78.2704	1,681.64	45.1378	1,681.64	41.8831	1,681.64	40
1,741.7	84.655	1,741.7	84.1203	1,741.7	81.3947	1,741.7	78.1737	1,741.7	45.9467	1,741.7	42.7256	1,741.7	40
1,803.22	84.5462	1,803.22	84.0855	1,803.22	80.8955	1,803.22	77.813	1,803.22	46.2724	1,803.22	43.19	1,803.22	40
1,866.21	84.1751	1,866.21	83.695	1,866.21	80.6583	1,866.21	77.7909	1,866.21	45.9042	1,866.21	43.0367	1,866.21	40
1,932.13	82.9316	1,932.13	82.3497	1,932.13	79.4658	1,932.13	77.109	1,932.13	45.2408	1,932.13	42.884	1,932.13	40
1,999.51	81.8535	1,999.51	81.677	1,999.51	78.9401	1,999.51	76.7568	1,999.51	44.9202	1,999.51	42.7369	1,999.51	40
2,069.82	81.4003	2,069.82	81.5497	2,069.82	78.5252	2,069.82	76.413	2,069.82	45.1367	2,069.82	43.0245	2,069.82	40
2,143.07	81.8535	2,143.07	81.8719	2,143.07	78.6668	2,143.07	76.3757	2,143.07	45.4963	2,143.07	43.2052	2,143.07	40
2,219.24	81.1306	2,219.24	81.558	2,219.24	78.1348	2,219.24	76.1795	2,219.24	45.3785	2,219.24	43.4232	2,219.24	40
2,296.88	79.8193	2,296.88	80.8478	2,296.88	77.4152	2,296.88	75.6722	2,296.88	45.1756	2,296.88	43.4327	2,296.88	40
2,378.91	79.4476	2,378.91	80.5312	2,378.91	77.6793	2,378.91	75.7968	2,378.91	44.7344	2,378.91	42.8519	2,378.91	40
2,462.4	81.6125	2,462.4	81.9442	2,462.4	78.6413	2,462.4	76.4947	2,462.4	45.4495	2,462.4	43.3029	2,462.4	40
2,548.83	83.0529	2,548.83	83.2524	2,548.83	79.6965	2,548.83	77.278	2,548.83	45.9744	2,548.83	43.5559	2,548.83	40
2,639.65	82.7887	2,639.65	83.1308	2,639.65	79.8047	2,639.65	77.52	2,639.65	45.6108	2,639.65	43.3261	2,639.65	40
2,731.93	81.6894	2,731.93	82.263	2,731.93	79.803	2,731.93	77.2297	2,731.93	45.0333	2,731.93	42.46	2,731.93	40
2,828.61	83.5733	2,828.61	83.7395	2,828.61	81.1768	2,828.61	78.2804	2,828.61	45.4591	2,828.61	42.5627	2,828.61	40
2,928.22	84.4448	2,928.22	84.8149	2,928.22	82.2037	2,928.22	79.3445	2,928.22	45.4704	2,928.22	42.6112	2,928.22	40
3,030.76	83.3339	3,030.76	84.0803	3,030.76	81.8132	3,030.76	79.1488	3,030.76	44.9316	3,030.76	42.2671	3,030.76	40
3,137.7	82.0853	3,137.7	83.2829	3,137.7	81.4236	3,137.7	78.8785	3,137.7	44.4044	3,137.7	41.8593	3,137.7	40
3,249.02	83.4041	3,249.02	83.7441	3,249.02	82.0256	3,249.02	79.3238	3,249.02	44.4203	3,249.02	41.7185	3,249.02	40
3,363.28	83.5209	3,363.28	83.3616	3,363.28	81.8582	3,363.28	79.2192	3,363.28	44.1424	3,363.28	41.5033	3,363.28	40
3,481.93	84.1496	3,481.93	83.375	3,481.93	81.6969	3,481.93	79.0362	3,481.93	44.3388	3,481.93	41.6781	3,481.93	40
3,604.98	84.2822	3,604.98	83.0616	3,604.98	81.6963	3,604.98	78.9937	3,604.98	44.0678	3,604.98	41.3653	3,604.98	40
3,732.42	84.8498	3,732.42	83.0436	3,732.42	81.6913	3,732.42	78.8587	3,732.42	44.1849	3,732.42	41.3524	3,732.42	40
3,864.26	84.2565	3,864.26	83.0637	3,864.26	81.6554	3,864.26	78.6903	3,864.26	44.3734	3,864.26	41.4083	3,864.26	40
4,000.49	83.5696	4,000.49	82.0908	4,000.49	81.3734	4,000.49	78.0444	4,000.49	44.0464	4,000.49	40.7174	4,000.49	40
4,141.11	84.421	4,141.11	82.5154	4,141.11	81.2851	4,141.11	77.9141	4,141.11	44.6013	4,141.11	41.2303	4,141.11	40
4,287.6	83.8421	4,287.6	82.5716	4,287.6	80.9017	4,287.6	77.5654	4,287.6	45.0062	4,287.6	41.6699	4,287.6	40
4,438.48	83.1857	4,438.48	82.2338	4,438.48	80.913	4,438.48	77.7093	4,438.48	44.5246	4,438.48	41.3209	4,438.48	40
4,595.21	83.5033	4,595.21	82.3849	4,595.21	81.0933	4,595.21	77.8318	4,595.21	44.5531	4,595.21	41.2916	4,595.21	40
4,756.35	83.0206	4,756.35	82.0441	4,756.35	80.7643	4,756.35	77.7493	4,756.35	44.2949	4,756.35	41.2798	4,756.35	40
4,924.8	82.4923	4,924.8	82.2209	4,924.8	80.3812	4,924.8	77.5764	4,924.8	44.6445	4,924.8	41.8397	4,924.8	40
5,097.66	81.8282	5,097.66	82.1671	5,097.66	80.2616	5,097.66	77.3111	5,097.66	44.856	5,097.66	41.9054	5,097.66	40
5,277.83	81.2353	5,277.83	81.234	5,277.83	79.7085	5,277.83	76.4628	5,277.83	44.7712	5,277.83	41.5255	5,277.83	40
5,463.87	81.7077	5,463.87	81.6887	5,463.87	80.0013	5,463.87	76.5431	5,463.87	45.1456	5,463.87	41.6874	5,463.87	40
5,657.23	81.3185	5,657.23	81.4056	5,657.23	79.2384	5,657.23	75.855	5,657.23	45.5506	5,657.23	42.1673	5,657.23	40
5,856.45	81.3392	5,856.45	81.3313	5,856.45	78.9445	5,856.45	75.6797	5,856.45	45.6516	5,856.45	42.3867	5,856.45	40
6,062.99	82.6605	6,062.99	81.7885	6,062.99	79.3565	6,062.99	75.8792	6,062.99	45.9093	6,062.99	42.4321	6,062.99	40
6,276.86	82.3853	6,276.86	81.6161	6,276.86	78.9762	6,276.86	75.7476	6,276.86	45.8685	6,276.86	42.6398	6,276.86	40
6,498.05	82.1481	6,498.05	81.6067	6,498.05	78.708	6,498.05	75.5775	6,498.05	46.0292	6,498.05	42.8987	6,498.05	40
6,726.56	81.9918	6,726.56	81.9358	6,726.56	78.9023	6,726.56	75.6914	6,726.56	46.2444	6,726.56	43.0336	6,726.56	40
6,963.87	81.0697	6,963.87	81.1201	6,963.87	78.6163	6,963.87	75.2425	6,963.87	45.8776	6,963.87	42.5038	6,963.87	40
7,209.96	81.9019	7,209.96	81.3175	7,209.96	78.5969	7,209.96	75.1262	7,209.96	46.1913	7,209.96	42.7206	7,209.96	40
7,464.84	81.2964	7,464.84	81.3165	7,464.84	78.2775	7,464.84	74.9788	7,464.84	46.3377	7,464.84	43.039	7,464.84	40
7,727.05	81.5301	7,727.05	80.8923	7,727.05	78.0757	7,727.05	74.5034	7,727.05	46.3889	7,727.05	42.8166	7,727.05	40
7,999.51	82.1538	7,999.51	81.6794	7,999.51	78.4521	7,999.51	74.7121	7,999.51	46.9673	7,999.51	43.2273	7,999.51	40
8,282.23	81.5212	8,282.23	81.2311	8,282.23	78.1955	8,282.23	74.1771	8,282.23	47.054	8,282.23	43.0356	8,282.23	40
8,573.73	81.8412	8,573.73	81.5755	8,573.73	77.8134	8,573.73	73.9797	8,573.73	47.5958	8,573.73	43.762	8,573.73	40
8,876.95	81.7899	8,876.95	81.3282	8,876.95	77.7744	8,876.95	73.7386	8,876.95	47.5896	8,876.95	43.5538	8,876.95	40
9,188.96	82.2933	9,188.96	81.3335	9,188.96	77.7994	9,188.96	73.6994	9,188.96	47.6341	9,188.96	43.5341	9,188.96	40
9,514.16	81.9969	9,514.16	81.0749	9,514.16	77.3821	9,514.16	73.3509	9,514.16	47.724	9,514.16	43.6928	9,514.16	40
9,849.61	82.1824	9,849.61	81.1066	9,849.61	77.3458	9,849.61	73.0689	9,849.61	48.0377	9,849.61	43.7608	9,849.61	40
10,196.8	82.6224	10,196.8	81.2517	10,196.8	77.3656	10,196.8	72.8967	10,196.8	48.3549	10,196.8	43.8861	10,196.8	40
10,555.7	82.5087	10,555.7	81.2603	10,555.7	77.2686	10,555.7	72.7697	10,555.7	48.4906	10,555.7	43.9917	10,555.7	40
10,927.7	82.5015	10,927.7	81.2348	10,927.7	77.217	10,927.7	72.4997	10,927.7	48.7351	10,927.7	44.0178	10,927.7	40
