"SPL Horizontal"
"On-Axis"		"10°"		"-10°"		"20°"		"-20°"		"30°"		"-30°"		"40°"		"-40°"		"50°"		"-50°"		"60°"		"-60°"		"70°"		"-70°"		"80°"		"-80°"		"90°"		"-90°"		"100°"		"-100°"		"110°"		"-110°"		"120°"		"-120°"		"130°"		"-130°"		"140°"		"-140°"		"150°"		"-150°"		"160°"		"-160°"		"170°"		"-170°"		"180°"
"Frequency / Hz"	"Sound Pressure Level / dB (re 20 µPa/V)  [2.83  V @ 1. m]"	"Frequency / Hz"	"Sound Pressure Level / dB (re 20 µPa/V)  [2.83  V @ 1. m]"	"Frequency / Hz"	"Sound Pressure Level / dB (re 20 µPa/V)  [2.83  V @ 1. m]"	"Frequency / Hz"	"Sound Pressure Level / dB (re 20 µPa/V)  [2.83  V @ 1. m]"	"Frequency / Hz"	"Sound Pressure Level / dB (re 20 µPa/V)  [2.83  V @ 1. m]"	"Frequency / Hz"	"Sound Pressure Level / dB (re 20 µPa/V)  [2.83  V @ 1. m]"	"Frequency / Hz"	"Sound Pressure Level / dB (re 20 µPa/V)  [2.83  V @ 1. m]"	"Frequency / Hz"	"Sound Pressure Level / dB (re 20 µPa/V)  [2.83  V @ 1. m]"	"Frequency / Hz"	"Sound Pressure Level / dB (re 20 µPa/V)  [2.83  V @ 1. m]"	"Frequency / Hz"	"Sound Pressure Level / dB (re 20 µPa/V)  [2.83  V @ 1. m]"	"Frequency / Hz"	"Sound Pressure Level / dB (re 20 µPa/V)  [2.83  V @ 1. m]"	"Frequency / Hz"	"Sound Pressure Level / dB (re 20 µPa/V)  [2.83  V @ 1. m]"	"Frequency / Hz"	"Sound Pressure Level / dB (re 20 µPa/V)  [2.83  V @ 1. m]"	"Frequency / Hz"	"Sound Pressure Level / dB (re 20 µPa/V)  [2.83  V @ 1. m]"	"Frequency / Hz"	"Sound Pressure Level / dB (re 20 µPa/V)  [2.83  V @ 1. m]"	"Frequency / Hz"	"Sound Pressure Level / dB (re 20 µPa/V)  [2.83  V @ 1. m]"	"Frequency / Hz"	"Sound Pressure Level / dB (re 20 µPa/V)  [2.83  V @ 1. m]"	"Frequency / Hz"	"Sound Pressure Level / dB (re 20 µPa/V)  [2.83  V @ 1. m]"	"Frequency / Hz"	"Sound Pressure Level / dB (re 20 µPa/V)  [2.83  V @ 1. m]"	"Frequency / Hz"	"Sound Pressure Level / dB (re 20 µPa/V)  [2.83  V @ 1. m]"	"Frequency / Hz"	"Sound Pressure Level / dB (re 20 µPa/V)  [2.83  V @ 1. m]"	"Frequency / Hz"	"Sound Pressure Level / dB (re 20 µPa/V)  [2.83  V @ 1. m]"	"Frequency / Hz"	"Sound Pressure Level / dB (re 20 µPa/V)  [2.83  V @ 1. m]"	"Frequency / Hz"	"Sound Pressure Level / dB (re 20 µPa/V)  [2.83  V @ 1. m]"	"Frequency / Hz"	"Sound Pressure Level / dB (re 20 µPa/V)  [2.83  V @ 1. m]"	"Frequency / Hz"	"Sound Pressure Level / dB (re 20 µPa/V)  [2.83  V @ 1. m]"	"Frequency / Hz"	"Sound Pressure Level / dB (re 20 µPa/V)  [2.83  V @ 1. m]"	"Frequency / Hz"	"Sound Pressure Level / dB (re 20 µPa/V)  [2.83  V @ 1. m]"	"Frequency / Hz"	"Sound Pressure Level / dB (re 20 µPa/V)  [2.83  V @ 1. m]"	"Frequency / Hz"	"Sound Pressure Level / dB (re 20 µPa/V)  [2.83  V @ 1. m]"	"Frequency / Hz"	"Sound Pressure Level / dB (re 20 µPa/V)  [2.83  V @ 1. m]"	"Frequency / Hz"	"Sound Pressure Level / dB (re 20 µPa/V)  [2.83  V @ 1. m]"	"Frequency / Hz"	"Sound Pressure Level / dB (re 20 µPa/V)  [2.83  V @ 1. m]"	"Frequency / Hz"	"Sound Pressure Level / dB (re 20 µPa/V)  [2.83  V @ 1. m]"	"Frequency / Hz"	"Sound Pressure Level / dB (re 20 µPa/V)  [2.83  V @ 1. m]"	"Frequency / Hz"	"Sound Pressure Level / dB (re 20 µPa/V)  [2.83  V @ 1. m]"
20.5078	57.6262	20.5078	57.6329	20.5078	57.5504	20.5078	57.5862	20.5078	57.4009	20.5078	57.5132	20.5078	57.1866	20.5078	57.4515	20.5078	56.9328	20.5078	57.4464	20.5078	56.6857	20.5078	57.5426	20.5078	56.5147	20.5078	57.7718	20.5078	56.5035	20.5078	58.1414	20.5078	56.7266	20.5078	58.6329	20.5078	57.2156	20.5078	59.2107	20.5078	57.9404	20.5078	59.8357	20.5078	58.8217	20.5078	60.4733	20.5078	59.7615	20.5078	61.0944	20.5078	60.6691	20.5078	61.6717	20.5078	61.4736	20.5078	62.1765	20.5078	62.1256	20.5078	62.5778	20.5078	62.5954	20.5078	62.8444	20.5078	62.8696	20.5078	62.9487
21.9727	58.6036	21.9727	58.5637	21.9727	58.5179	21.9727	58.4041	21.9727	58.3024	21.9727	58.1323	21.9727	57.9552	21.9727	57.7603	21.9727	57.4812	21.9727	57.3099	21.9727	56.9	21.9727	56.822	21.9727	56.2628	21.9727	56.3695	21.9727	55.6782	21.9727	56.0642	21.9727	55.3283	21.9727	56.037	21.9727	55.4158	21.9727	56.3751	21.9727	56.0176	21.9727	57.0575	21.9727	57.0039	21.9727	57.9641	21.9727	58.1476	21.9727	58.9463	21.9727	59.2607	21.9727	59.8817	21.9727	60.2308	21.9727	60.6871	21.9727	61.0002	21.9727	61.311	21.9727	61.5417	21.9727	61.7221	21.9727	61.8437	21.9727	61.9028
23.4375	58.4802	23.4375	58.4363	23.4375	58.3977	23.4375	58.2701	23.4375	58.1902	23.4375	57.9925	23.4375	57.8661	23.4375	57.6282	23.4375	57.4468	23.4375	57.2255	23.4375	56.98	23.4375	56.8702	23.4375	56.5574	23.4375	56.6891	23.4375	56.3242	23.4375	56.8173	23.4375	56.4433	23.4375	57.3227	23.4375	56.9982	23.4375	58.1537	23.4375	57.9208	23.4375	59.1754	23.4375	59.0435	23.4375	60.2471	23.4375	60.2006	23.4375	61.2641	23.4375	61.2774	23.4375	62.1596	23.4375	62.2059	23.4375	62.8926	23.4375	62.9483	23.4375	63.4369	23.4375	63.4842	23.4375	63.7762	23.4375	63.8028	23.4375	63.8999
24.9023	60.2453	24.9023	60.1427	24.9023	60.2176	24.9023	59.9141	24.9023	60.0605	24.9023	59.5718	24.9023	59.7811	24.9023	59.1426	24.9023	59.3971	24.9023	58.68	24.9023	58.946	24.9023	58.2787	24.9023	58.4993	24.9023	58.0754	24.9023	58.175	24.9023	58.2078	24.9023	58.1233	24.9023	58.731	24.9023	58.4592	24.9023	59.573	24.9023	59.1788	24.9023	60.5867	24.9023	60.1575	24.9023	61.6313	24.9023	61.2331	24.9023	62.6078	24.9023	62.2749	24.9023	63.4552	24.9023	63.1983	24.9023	64.1372	24.9023	63.9541	24.9023	64.6312	24.9023	64.515	24.9023	64.9227	24.9023	64.8666	24.9023	65.0026
26.3672	60.1967	26.3672	60.1096	26.3672	60.1877	26.3672	59.9401	26.3672	60.0815	26.3672	59.7188	26.3672	59.8908	26.3672	59.4986	26.3672	59.6461	26.3672	59.3588	26.3672	59.4048	26.3672	59.3964	26.3672	59.2565	26.3672	59.6933	26.3672	59.3132	26.3672	60.2738	26.3672	59.6676	26.3672	61.0877	26.3672	60.3373	26.3672	62.0401	26.3672	61.2506	26.3672	63.0331	26.3672	62.2893	26.3672	63.9896	26.3672	63.3411	26.3672	64.8562	26.3672	64.3235	26.3672	65.5966	26.3672	65.1828	26.3672	66.1861	26.3672	65.8857	26.3672	66.6068	26.3672	66.4122	26.3672	66.8459	26.3672	66.7504	26.3672	66.8952
27.832	62.4743	27.832	62.4816	27.832	62.3906	27.832	62.423	27.832	62.2293	27.832	62.3188	27.832	61.9996	27.832	62.2013	27.832	61.7262	27.832	62.1164	27.832	61.4554	27.832	62.1213	27.832	61.2605	27.832	62.2733	27.832	61.2351	27.832	62.6109	27.832	61.4638	27.832	63.1355	27.832	61.9775	27.832	63.8088	27.832	62.7316	27.832	64.5677	27.832	63.6304	27.832	65.3448	27.832	64.5707	27.832	66.0811	27.832	65.4691	27.832	66.7304	27.832	66.2676	27.832	67.2581	27.832	66.9283	27.832	67.6387	27.832	67.4276	27.832	67.8546	27.832	67.7517	27.832	67.8941
29.2969	64.1403	29.2969	64.1014	29.2969	64.1133	29.2969	64.0016	29.2969	64.0248	29.2969	63.8558	29.2969	63.8884	29.2969	63.6918	29.2969	63.7293	29.2969	63.5526	29.2969	63.5867	29.2969	63.496	29.2969	63.5134	29.2969	63.5848	29.2969	63.5689	29.2969	63.8664	29.2969	63.8026	29.2969	64.3503	29.2969	64.2328	29.2969	65.0008	29.2969	64.8364	29.2969	65.7521	29.2969	65.5573	29.2969	66.5313	29.2969	66.3265	29.2969	67.2748	29.2969	67.0789	29.2969	67.9334	29.2969	67.7616	29.2969	68.4717	29.2969	68.3349	29.2969	68.865	29.2969	68.7702	29.2969	69.0971	29.2969	69.0487	29.2969	69.1591
30.7617	65.3398	30.7617	65.3139	30.7617	65.3179	30.7617	65.2483	30.7617	65.2489	30.7617	65.1617	30.7617	65.1434	30.7617	65.0834	30.7617	65.0232	30.7617	65.0539	30.7617	64.9227	30.7617	65.1201	30.7617	64.8884	30.7617	65.3244	30.7617	64.972	30.7617	65.6897	30.7617	65.2167	30.7617	66.2084	30.7617	65.6394	30.7617	66.8438	30.7617	66.2215	30.7617	67.5425	30.7617	66.9149	30.7617	68.2483	30.7617	67.6576	30.7617	68.9116	30.7617	68.3892	30.7617	69.4929	30.7617	69.0594	30.7617	69.9615	30.7617	69.6293	30.7617	70.2953	30.7617	70.0711	30.7617	70.4788	30.7617	70.3661	30.7617	70.5033
32.2266	67.4483	32.2266	67.4592	32.2266	67.4099	32.2266	67.4478	32.2266	67.3459	32.2266	67.4269	32.2266	67.2661	32.2266	67.4166	32.2266	67.1887	32.2266	67.4436	32.2266	67.1405	32.2266	67.5384	32.2266	67.1552	32.2266	67.7293	32.2266	67.2686	32.2266	68.0341	32.2266	67.5094	32.2266	68.4534	32.2266	67.8885	32.2266	68.9679	32.2266	68.3931	32.2266	69.5432	32.2266	68.9886	32.2266	70.1369	32.2266	69.6283	32.2266	70.7069	32.2266	70.2632	32.2266	71.2155	32.2266	70.8497	32.2266	71.6319	32.2266	71.3522	32.2266	71.9323	32.2266	71.7436	32.2266	72.1	32.2266	72.005	32.2266	72.1252
33.6914	68.7781	33.6914	68.7822	33.6914	68.7526	33.6914	68.7693	33.6914	68.7078	33.6914	68.7504	33.6914	68.6525	33.6914	68.7431	33.6914	68.6025	33.6914	68.7707	33.6914	68.5806	33.6914	68.8599	33.6914	68.6147	33.6914	69.0359	33.6914	68.7339	33.6914	69.3156	33.6914	68.9614	33.6914	69.701	33.6914	69.3067	33.6914	70.1766	33.6914	69.7604	33.6914	70.7124	33.6914	70.2954	33.6914	71.2698	33.6914	70.8728	33.6914	71.8088	33.6914	71.4505	33.6914	72.2928	33.6914	71.9885	33.6914	72.6911	33.6914	72.4527	33.6914	72.98	33.6914	72.8163	33.6914	73.1428	33.6914	73.0596	33.6914	73.1701
35.1562	70.2259	35.1562	70.2318	35.1562	70.2056	35.1562	70.2271	35.1562	70.1725	35.1562	70.2212	35.1562	70.1341	35.1562	70.2286	35.1562	70.1033	35.1562	70.2684	35.1562	70.0988	35.1562	70.3622	35.1562	70.1433	35.1562	70.5304	35.1562	70.2604	35.1562	70.7873	35.1562	70.4692	35.1562	71.1354	35.1562	70.7782	35.1562	71.5633	35.1562	71.1817	35.1562	72.0466	35.1562	71.6588	35.1562	72.5525	35.1562	72.1779	35.1562	73.0452	35.1562	72.7025	35.1562	73.4904	35.1562	73.196	35.1562	73.8586	35.1562	73.6259	35.1562	74.1261	35.1562	73.9653	35.1562	74.2762	35.1562	74.1942	35.1562	74.2996
36.6211	71.7342	36.6211	71.737	36.6211	71.7201	36.6211	71.7317	36.6211	71.6963	36.6211	71.7257	36.6211	71.6689	36.6211	71.7311	36.6211	71.6486	36.6211	71.7637	36.6211	71.6504	36.6211	71.8419	36.6211	71.6928	36.6211	71.9835	36.6211	71.7951	36.6211	72.202	36.6211	71.9738	36.6211	72.5019	36.6211	72.2382	36.6211	72.876	36.6211	72.5857	36.6211	73.3052	36.6211	73.0015	36.6211	73.7612	36.6211	73.4598	36.6211	74.2113	36.6211	73.9287	36.6211	74.6226	36.6211	74.3747	36.6211	74.9659	36.6211	74.7666	36.6211	75.2173	36.6211	75.0779	36.6211	75.3599	36.6211	75.2882	36.6211	75.3841
38.0859	72.7861	38.0859	72.7762	38.0859	72.785	38.0859	72.7584	38.0859	72.7742	38.0859	72.7404	38.0859	72.7595	38.0859	72.7345	38.0859	72.7513	38.0859	72.7567	38.0859	72.764	38.0859	72.8259	38.0859	72.8151	38.0859	72.9603	38.0859	72.9228	38.0859	73.1735	38.0859	73.102	38.0859	73.4702	38.0859	73.3605	38.0859	73.8426	38.0859	73.6955	38.0859	74.2708	38.0859	74.0928	38.0859	74.7258	38.0859	74.5286	38.0859	75.1744	38.0859	74.9736	38.0859	75.5839	38.0859	75.3967	38.0859	75.9256	38.0859	75.7684	38.0859	76.1765	38.0859	76.0633	38.0859	76.3206	38.0859	76.2614	38.0859	76.3493
39.5508	73.8579	39.5508	73.8669	39.5508	73.8542	39.5508	73.8839	39.5508	73.8566	39.5508	73.915	39.5508	73.8695	39.5508	73.9695	39.5508	73.9004	39.5508	74.0583	39.5508	73.9593	39.5508	74.1933	39.5508	74.0581	39.5508	74.3843	39.5508	74.2079	39.5508	74.6369	39.5508	74.4176	39.5508	74.9498	39.5508	74.6907	39.5508	75.314	39.5508	75.0233	39.5508	75.7126	39.5508	75.4038	39.5508	76.1235	39.5508	75.8133	39.5508	76.5211	39.5508	76.228	39.5508	76.8801	39.5508	76.6217	39.5508	77.1769	39.5508	76.9688	39.5508	77.3922	39.5508	77.2465	39.5508	77.5115	39.5508	77.4365	39.5508	77.5267
41.0156	75.2954	41.0156	75.3209	41.0156	75.2761	41.0156	75.3539	41.0156	75.2643	41.0156	75.3983	41.0156	75.2639	41.0156	75.4601	41.0156	75.2811	41.0156	75.5471	41.0156	75.3239	41.0156	75.6677	41.0156	75.4017	41.0156	75.8298	41.0156	75.5235	41.0156	76.0386	41.0156	75.6968	41.0156	76.2949	41.0156	75.9256	41.0156	76.5939	41.0156	76.2084	41.0156	76.9242	41.0156	76.537	41.0156	77.2688	41.0156	76.8966	41.0156	77.6069	41.0156	77.2668	41.0156	77.9159	41.0156	77.6236	41.0156	78.1736	41.0156	77.9427	41.0156	78.3608	41.0156	78.2013	41.0156	78.4626	41.0156	78.3812	41.0156	78.47
42.4805	76.5386	42.4805	76.546	42.4805	76.5356	42.4805	76.5595	42.4805	76.5373	42.4805	76.5828	42.4805	76.546	42.4805	76.621	42.4805	76.5661	42.4805	76.6807	42.4805	76.6036	42.4805	76.7693	42.4805	76.6662	42.4805	76.894	42.4805	76.7624	42.4805	77.0602	42.4805	76.8999	42.4805	77.2703	42.4805	77.0839	42.4805	77.5215	42.4805	77.3152	42.4805	77.8053	42.4805	77.5882	42.4805	78.1076	42.4805	77.891	42.4805	78.4097	42.4805	78.206	42.4805	78.6907	42.4805	78.5118	42.4805	78.9294	42.4805	78.7858	42.4805	79.1071	42.4805	79.0068	42.4805	79.2092	42.4805	79.1577	42.4805	79.2268
43.9453	77.3901	43.9453	77.4011	43.9453	77.3845	43.9453	77.4187	43.9453	77.3848	43.9453	77.4458	43.9453	77.3933	43.9453	77.4865	43.9453	77.414	43.9453	77.5463	43.9453	77.4523	43.9453	77.6314	43.9453	77.5145	43.9453	77.7479	43.9453	77.6075	43.9453	77.9003	43.9453	77.7372	43.9453	78.0906	43.9453	77.9075	43.9453	78.3169	43.9453	78.1184	43.9453	78.5721	43.9453	78.3652	43.9453	78.8441	43.9453	78.6381	43.9453	79.1167	43.9453	78.9221	43.9453	79.3708	43.9453	79.1986	43.9453	79.5871	43.9453	79.4478	43.9453	79.7481	43.9453	79.6501	43.9453	79.8399	43.9453	79.7894	43.9453	79.8543
45.4102	78.245	45.4102	78.2531	45.4102	78.2411	45.4102	78.2664	45.4102	78.242	45.4102	78.2872	45.4102	78.2495	45.4102	78.3194	45.4102	78.2672	45.4102	78.3678	45.4102	78.2996	45.4102	78.4379	45.4102	78.3525	45.4102	78.5354	45.4102	78.4319	45.4102	78.665	45.4102	78.5435	45.4102	78.8294	45.4102	78.6911	45.4102	79.0276	45.4102	78.8758	45.4102	79.2543	45.4102	79.0942	45.4102	79.4992	45.4102	79.3381	45.4102	79.7479	45.4102	79.5943	45.4102	79.9826	45.4102	79.8456	45.4102	80.1848	45.4102	80.0732	45.4102	80.3372	45.4102	80.2583	45.4102	80.4259	45.4102	80.3851	45.4102	80.4426
46.875	78.8655	46.875	78.8734	46.875	78.864	46.875	78.8884	46.875	78.8691	46.875	78.9126	46.875	78.8825	46.875	78.949	46.875	78.9069	46.875	79.0016	46.875	78.9461	46.875	79.075	46.875	79.005	46.875	79.1738	46.875	79.0884	46.875	79.3018	46.875	79.2012	46.875	79.4611	46.875	79.3464	46.875	79.6509	46.875	79.5246	46.875	79.8664	46.875	79.7327	46.875	80.0985	46.875	79.963	46.875	80.334	46.875	80.2036	46.875	80.5564	46.875	80.4389	46.875	80.7483	46.875	80.6516	46.875	80.8934	46.875	80.8245	46.875	80.9784	46.875	80.9425	46.875	80.9954
48.3398	79.4654	48.3398	79.4745	48.3398	79.4649	48.3398	79.4928	48.3398	79.4732	48.3398	79.5219	48.3398	79.4916	48.3398	79.564	48.3398	79.522	48.3398	79.6222	48.3398	79.5675	48.3398	79.6998	48.3398	79.6315	48.3398	79.8003	48.3398	79.7178	48.3398	79.9263	48.3398	79.83	48.3398	80.0793	48.3398	79.9704	48.3398	80.2583	48.3398	80.1393	48.3398	80.459	48.3398	80.3339	48.3398	80.6736	48.3398	80.5476	48.3398	80.8903	48.3398	80.7698	48.3398	81.0948	48.3398	80.9867	48.3398	81.2714	48.3398	81.1826	48.3398	81.4049	48.3398	81.3417	48.3398	81.4834	48.3398	81.4505	48.3398	81.4991
51.2695	80.4815	51.2695	80.4991	51.2695	80.4755	51.2695	80.5282	51.2695	80.4812	51.2695	80.5695	51.2695	80.4994	51.2695	80.6237	51.2695	80.5312	51.2695	80.6917	51.2695	80.578	51.2695	80.7747	51.2695	80.6418	51.2695	80.8738	51.2695	80.7244	51.2695	80.99	51.2695	80.8275	51.2695	81.1234	51.2695	80.9523	51.2695	81.2731	51.2695	81.0985	51.2695	81.4365	51.2695	81.264	51.2695	81.6082	51.2695	81.444	51.2695	81.7803	51.2695	81.6306	51.2695	81.9422	51.2695	81.8132	51.2695	82.0817	51.2695	81.9791	51.2695	82.1866	51.2695	82.1152	51.2695	82.2465	51.2695	82.2099	51.2695	82.2549
52.7344	80.8022	52.7344	80.8202	52.7344	80.797	52.7344	80.8508	52.7344	80.8049	52.7344	80.894	52.7344	80.8263	52.7344	80.9497	52.7344	80.8621	52.7344	81.0181	52.7344	80.9129	52.7344	81.0995	52.7344	80.9799	52.7344	81.1944	52.7344	81.0641	52.7344	81.3031	52.7344	81.1663	52.7344	81.4259	52.7344	81.2867	52.7344	81.5621	52.7344	81.4248	52.7344	81.7098	52.7344	81.5781	52.7344	81.8648	52.7344	81.7425	52.7344	82.0204	52.7344	81.911	52.7344	82.1674	52.7344	82.0744	52.7344	82.295	52.7344	82.2218	52.7344	82.3923	52.7344	82.3416	52.7344	82.4496	52.7344	82.4237	52.7344	82.4607
54.1992	81.0894	54.1992	81.103	54.1992	81.0887	54.1992	81.1291	54.1992	81.1009	54.1992	81.1673	54.1992	81.1263	54.1992	81.2173	54.1992	81.1648	54.1992	81.2786	54.1992	81.2165	54.1992	81.3511	54.1992	81.2815	54.1992	81.4347	54.1992	81.3599	54.1992	81.5297	54.1992	81.4517	54.1992	81.6362	54.1992	81.5568	54.1992	81.7538	54.1992	81.6746	54.1992	81.881	54.1992	81.8034	54.1992	82.0144	54.1992	81.9401	54.1992	82.1484	54.1992	82.0797	54.1992	82.2754	54.1992	82.2149	54.1992	82.3861	54.1992	82.337	54.1992	82.471	54.1992	82.4362	54.1992	82.5218	54.1992	82.5038	54.1992	82.5333
55.6641	81.424	55.6641	81.4402	55.6641	81.4176	55.6641	81.4654	55.6641	81.4216	55.6641	81.4987	55.6641	81.4363	55.6641	81.5393	55.6641	81.4616	55.6641	81.5865	55.6641	81.4976	55.6641	81.64	55.6641	81.5437	55.6641	81.7	55.6641	81.5999	55.6641	81.7672	55.6641	81.6659	55.6641	81.8423	55.6641	81.7417	55.6641	81.9258	55.6641	81.8272	55.6641	82.0171	55.6641	81.922	55.6641	82.1144	55.6641	82.0247	55.6641	82.2138	55.6641	82.1321	55.6641	82.3096	55.6641	82.2389	55.6641	82.3941	55.6641	82.3377	55.6641	82.4594	55.6641	82.42	55.6641	82.4978	55.6641	82.4776	55.6641	82.5044
58.5938	82.0418	58.5938	82.0382	58.5938	82.0528	58.5938	82.0423	58.5938	82.071	58.5938	82.0538	58.5938	82.0958	58.5938	82.0728	58.5938	82.1265	58.5938	82.0989	58.5938	82.1622	58.5938	82.132	58.5938	82.2024	58.5938	82.1722	58.5938	82.2467	58.5938	82.2196	58.5938	82.2952	58.5938	82.2746	58.5938	82.3485	58.5938	82.3377	58.5938	82.4074	58.5938	82.4088	58.5938	82.4724	58.5938	82.4871	58.5938	82.5431	58.5938	82.5702	58.5938	82.6176	58.5938	82.6537	58.5938	82.6918	58.5938	82.7313	58.5938	82.7598	58.5938	82.7955	58.5938	82.8144	58.5938	82.8394	58.5938	82.8488	58.5938	82.8577
60.0586	82.1748	60.0586	82.1813	60.0586	82.1786	60.0586	82.198	60.0586	82.1925	60.0586	82.2244	60.0586	82.2158	60.0586	82.2598	60.0586	82.2476	60.0586	82.303	60.0586	82.2872	60.0586	82.3531	60.0586	82.3336	60.0586	82.4089	60.0586	82.3864	60.0586	82.4699	60.0586	82.4452	60.0586	82.5356	60.0586	82.5101	60.0586	82.6058	60.0586	82.5812	60.0586	82.6805	60.0586	82.658	60.0586	82.7589	60.0586	82.7395	60.0586	82.8391	60.0586	82.823	60.0586	82.9174	60.0586	82.9046	60.0586	82.9882	60.0586	82.9786	60.0586	83.045	60.0586	83.0385	60.0586	83.0815	60.0586	83.0781	60.0586	83.0931
62.9883	82.4224	62.9883	82.4303	62.9883	82.4252	62.9883	82.4484	62.9883	82.4386	62.9883	82.4761	62.9883	82.4619	62.9883	82.5119	62.9883	82.4939	62.9883	82.5542	62.9883	82.5334	62.9883	82.6015	62.9883	82.5788	62.9883	82.6521	62.9883	82.6286	62.9883	82.7049	62.9883	82.6816	62.9883	82.7591	62.9883	82.7366	62.9883	82.8141	62.9883	82.793	62.9883	82.8699	62.9883	82.8502	62.9883	82.926	62.9883	82.9077	62.9883	82.9815	62.9883	82.9644	62.9883	83.0341	62.9883	83.0186	62.9883	83.0807	62.9883	83.0675	62.9883	83.1172	62.9883	83.1075	62.9883	83.1398	62.9883	83.1346	62.9883	83.1459
64.4531	82.5251	64.4531	82.5312	64.4531	82.5303	64.4531	82.5481	64.4531	82.5467	64.4531	82.5749	64.4531	82.5734	64.4531	82.6101	64.4531	82.609	64.4531	82.6519	64.4531	82.6519	64.4531	82.6982	64.4531	82.7	64.4531	82.7472	64.4531	82.7515	64.4531	82.7974	64.4531	82.8045	64.4531	82.8477	64.4531	82.8577	64.4531	82.8975	64.4531	82.9101	64.4531	82.9469	64.4531	82.9612	64.4531	82.9956	64.4531	83.0106	64.4531	83.0433	64.4531	83.0576	64.4531	83.0888	64.4531	83.1012	64.4531	83.1296	64.4531	83.1393	64.4531	83.1628	64.4531	83.1693	64.4531	83.185	64.4531	83.1882	64.4531	83.1938
67.3828	82.8086	67.3828	82.8111	67.3828	82.8188	67.3828	82.8257	67.3828	82.8413	67.3828	82.8512	67.3828	82.8749	67.3828	82.8856	67.3828	82.9177	67.3828	82.9262	67.3828	82.9673	67.3828	82.9706	67.3828	83.0209	67.3828	83.016	67.3828	83.0757	67.3828	83.0604	67.3828	83.129	67.3828	83.1021	67.3828	83.1788	67.3828	83.1404	67.3828	83.2233	67.3828	83.1754	67.3828	83.2619	67.3828	83.2077	67.3828	83.2941	67.3828	83.2381	67.3828	83.3203	67.3828	83.2672	67.3828	83.3405	67.3828	83.2948	67.3828	83.3547	67.3828	83.3198	67.3828	83.3623	67.3828	83.3405	67.3828	83.3626	67.3828	83.3552
