"SPL Vertical"																																																																							
"On-Axis"		"10°"		"-10°"		"20°"		"-20°"		"30°"		"-30°"		"40°"		"-40°"		"50°"		"-50°"		"60°"		"-60°"		"70°"		"-70°"		"80°"		"-80°"		"90°"		"-90°"		"100°"		"-100°"		"110°"		"-110°"		"120°"		"-120°"		"130°"		"-130°"		"140°"		"-140°"		"150°"		"-150°"		"160°"		"-160°"		"170°"		"-170°"		"180°"	
"Frequency / Hz"	"Sound Pressure Level / dB (re 20 µPa/V)  [2.83  V @ 1. m]"	"Frequency / Hz"	"Sound Pressure Level / dB (re 20 µPa/V)  [2.83  V @ 1. m]"	"Frequency / Hz"	"Sound Pressure Level / dB (re 20 µPa/V)  [2.83  V @ 1. m]"	"Frequency / Hz"	"Sound Pressure Level / dB (re 20 µPa/V)  [2.83  V @ 1. m]"	"Frequency / Hz"	"Sound Pressure Level / dB (re 20 µPa/V)  [2.83  V @ 1. m]"	"Frequency / Hz"	"Sound Pressure Level / dB (re 20 µPa/V)  [2.83  V @ 1. m]"	"Frequency / Hz"	"Sound Pressure Level / dB (re 20 µPa/V)  [2.83  V @ 1. m]"	"Frequency / Hz"	"Sound Pressure Level / dB (re 20 µPa/V)  [2.83  V @ 1. m]"	"Frequency / Hz"	"Sound Pressure Level / dB (re 20 µPa/V)  [2.83  V @ 1. m]"	"Frequency / Hz"	"Sound Pressure Level / dB (re 20 µPa/V)  [2.83  V @ 1. m]"	"Frequency / Hz"	"Sound Pressure Level / dB (re 20 µPa/V)  [2.83  V @ 1. m]"	"Frequency / Hz"	"Sound Pressure Level / dB (re 20 µPa/V)  [2.83  V @ 1. m]"	"Frequency / Hz"	"Sound Pressure Level / dB (re 20 µPa/V)  [2.83  V @ 1. m]"	"Frequency / Hz"	"Sound Pressure Level / dB (re 20 µPa/V)  [2.83  V @ 1. m]"	"Frequency / Hz"	"Sound Pressure Level / dB (re 20 µPa/V)  [2.83  V @ 1. m]"	"Frequency / Hz"	"Sound Pressure Level / dB (re 20 µPa/V)  [2.83  V @ 1. m]"	"Frequency / Hz"	"Sound Pressure Level / dB (re 20 µPa/V)  [2.83  V @ 1. m]"	"Frequency / Hz"	"Sound Pressure Level / dB (re 20 µPa/V)  [2.83  V @ 1. m]"	"Frequency / Hz"	"Sound Pressure Level / dB (re 20 µPa/V)  [2.83  V @ 1. m]"	"Frequency / Hz"	"Sound Pressure Level / dB (re 20 µPa/V)  [2.83  V @ 1. m]"	"Frequency / Hz"	"Sound Pressure Level / dB (re 20 µPa/V)  [2.83  V @ 1. m]"	"Frequency / Hz"	"Sound Pressure Level / dB (re 20 µPa/V)  [2.83  V @ 1. m]"	"Frequency / Hz"	"Sound Pressure Level / dB (re 20 µPa/V)  [2.83  V @ 1. m]"	"Frequency / Hz"	"Sound Pressure Level / dB (re 20 µPa/V)  [2.83  V @ 1. m]"	"Frequency / Hz"	"Sound Pressure Level / dB (re 20 µPa/V)  [2.83  V @ 1. m]"	"Frequency / Hz"	"Sound Pressure Level / dB (re 20 µPa/V)  [2.83  V @ 1. m]"	"Frequency / Hz"	"Sound Pressure Level / dB (re 20 µPa/V)  [2.83  V @ 1. m]"	"Frequency / Hz"	"Sound Pressure Level / dB (re 20 µPa/V)  [2.83  V @ 1. m]"	"Frequency / Hz"	"Sound Pressure Level / dB (re 20 µPa/V)  [2.83  V @ 1. m]"	"Frequency / Hz"	"Sound Pressure Level / dB (re 20 µPa/V)  [2.83  V @ 1. m]"	"Frequency / Hz"	"Sound Pressure Level / dB (re 20 µPa/V)  [2.83  V @ 1. m]"	"Frequency / Hz"	"Sound Pressure Level / dB (re 20 µPa/V)  [2.83  V @ 1. m]"	"Frequency / Hz"	"Sound Pressure Level / dB (re 20 µPa/V)  [2.83  V @ 1. m]"	"Frequency / Hz"	"Sound Pressure Level / dB (re 20 µPa/V)  [2.83  V @ 1. m]"	"Frequency / Hz"	"Sound Pressure Level / dB (re 20 µPa/V)  [2.83  V @ 1. m]"	"Frequency / Hz"	"Sound Pressure Level / dB (re 20 µPa/V)  [2.83  V @ 1. m]"
20.5078	47.6083	20.5078	46.7594	20.5078	48.1588	20.5078	45.6752	20.5078	48.3984	20.5078	44.6035	20.5078	48.3172	20.5078	44.1691	20.5078	47.8983	20.5078	45.0176	20.5078	47.1303	20.5078	46.8769	20.5078	46.0734	20.5078	49.0097	20.5078	45.0748	20.5078	51.017	20.5078	45.0405	20.5078	52.7888	20.5078	46.592	20.5078	54.3186	20.5078	48.9744	20.5078	55.6245	20.5078	51.3421	20.5078	56.725	20.5078	53.4026	20.5078	57.6322	20.5078	55.115	20.5078	58.3513	20.5078	56.5004	20.5078	58.8814	20.5078	57.5867	20.5078	59.2168	20.5078	58.3976	20.5078	59.348	20.5078	58.9515	20.5078	59.2638
21.9727	46.7425	21.9727	45.8339	21.9727	47.4893	21.9727	45.0411	21.9727	47.9721	21.9727	44.8855	21.9727	48.1591	21.9727	45.766	21.9727	48.0463	21.9727	47.4331	21.9727	47.6643	21.9727	49.3562	21.9727	47.1369	21.9727	51.2175	21.9727	46.7996	21.9727	52.9063	21.9727	47.1971	21.9727	54.4019	21.9727	48.5738	21.9727	55.711	21.9727	50.5271	21.9727	56.8449	21.9727	52.552	21.9727	57.8118	21.9727	54.3938	21.9727	58.6149	21.9727	55.9731	21.9727	59.2525	21.9727	57.2787	21.9727	59.7185	21.9727	58.3201	21.9727	60.0037	21.9727	59.1103	21.9727	60.0972	21.9727	59.662	21.9727	59.9872
23.4375	52.0958	23.4375	51.6122	23.4375	52.4657	23.4375	51.0983	23.4375	52.6768	23.4375	50.696	23.4375	52.7049	23.4375	50.5981	23.4375	52.5397	23.4375	50.9631	23.4375	52.19	23.4375	51.7953	23.4375	51.7063	23.4375	52.9436	23.4375	51.2269	23.4375	54.2222	23.4375	51.0223	23.4375	55.4958	23.4375	51.4074	23.4375	56.6881	23.4375	52.4571	23.4375	57.7609	23.4375	53.9143	23.4375	58.695	23.4375	55.4587	23.4375	59.4787	23.4375	56.8927	23.4375	60.1026	23.4375	58.1294	23.4375	60.5568	23.4375	59.1395	23.4375	60.8311	23.4375	59.9176	23.4375	60.9148	23.4375	60.4676	23.4375	60.797
24.9023	54.2334	24.9023	53.7532	24.9023	54.59	24.9023	53.2013	24.9023	54.7938	24.9023	52.6697	24.9023	54.8274	24.9023	52.3032	24.9023	54.6797	24.9023	52.2727	24.9023	54.3489	24.9023	52.6863	24.9023	53.8545	24.9023	53.5052	24.9023	53.2667	24.9023	54.5779	24.9023	52.7544	24.9023	55.7425	24.9023	52.6042	24.9023	56.8846	24.9023	53.0739	24.9023	57.9372	24.9023	54.1327	24.9023	58.8639	24.9023	55.492	24.9023	59.6437	24.9023	56.8713	24.9023	60.262	24.9023	58.1121	24.9023	60.7071	24.9023	59.1474	24.9023	60.9675	24.9023	59.9561	24.9023	61.0326	24.9023	60.5359	24.9023	60.8919
26.3672	52.8169	26.3672	52.3595	26.3672	53.1714	26.3672	51.8879	26.3672	53.3718	26.3672	51.5462	26.3672	53.3875	26.3672	51.5184	26.3672	53.201	26.3672	51.9418	26.3672	52.8117	26.3672	52.8029	26.3672	52.26	26.3672	53.9518	26.3672	51.6829	26.3672	55.2145	26.3672	51.3836	26.3672	56.4651	26.3672	51.7491	26.3672	57.6324	26.3672	52.8793	26.3672	58.6797	26.3672	54.4541	26.3672	59.5884	26.3672	56.0968	26.3672	60.3473	26.3672	57.5958	26.3672	60.9477	26.3672	58.8704	26.3672	61.3808	26.3672	59.9004	26.3672	61.6374	26.3672	60.6884	26.3672	61.7074	26.3672	61.2445	26.3672	61.5802
27.832	53.6455	27.832	53.2366	27.832	53.9451	27.832	52.8195	27.832	54.0802	27.832	52.5586	27.832	54.0235	27.832	52.6533	27.832	53.7695	27.832	53.2282	27.832	53.3474	27.832	54.2318	27.832	52.8617	27.832	55.4873	27.832	52.5541	27.832	56.8196	27.832	52.7824	27.832	58.1145	27.832	53.7458	27.832	59.3117	27.832	55.2459	27.832	60.3826	27.832	56.9182	27.832	61.3134	27.832	58.5117	27.832	62.0956	27.832	59.9138	27.832	62.7222	27.832	61.0875	27.832	63.1857	27.832	62.027	27.832	63.4775	27.832	62.7377	27.832	63.5884	27.832	63.2284	27.832	63.5087
29.2969	58.9486	29.2969	58.7969	29.2969	59.0906	29.2969	58.6804	29.2969	59.1922	29.2969	58.6548	29.2969	59.2381	29.2969	58.7755	29.2969	59.2293	29.2969	59.0817	29.2969	59.1876	29.2969	59.5798	29.2969	59.1592	29.2969	60.2416	29.2969	59.2168	29.2969	61.0154	29.2969	59.4444	29.2969	61.844	29.2969	59.9037	29.2969	62.6763	29.2969	60.5964	29.2969	63.4715	29.2969	61.4592	29.2969	64.1989	29.2969	62.3968	29.2969	64.8344	29.2969	63.3188	29.2969	65.3589	29.2969	64.158	29.2969	65.7563	29.2969	64.8709	29.2969	66.0123	29.2969	65.4323	29.2969	66.1154	29.2969	65.8289	29.2969	66.0562
30.7617	60.1557	30.7617	59.9782	30.7617	60.3155	30.7617	59.8249	30.7617	60.4287	30.7617	59.7489	30.7617	60.4802	30.7617	59.8053	30.7617	60.4688	30.7617	60.0369	30.7617	60.4107	30.7617	60.4574	30.7617	60.3446	30.7617	61.046	30.7617	60.334	30.7617	61.756	30.7617	60.4602	30.7617	62.5316	30.7617	60.7948	30.7617	63.3206	30.7617	61.3621	30.7617	64.0807	30.7617	62.1202	30.7617	64.7791	30.7617	62.983	30.7617	65.3907	30.7617	63.8579	30.7617	65.8956	30.7617	64.6701	30.7617	66.2771	30.7617	65.3691	30.7617	66.5209	30.7617	65.9244	30.7617	66.615	30.7617	66.32	30.7617	66.55
32.2266	61.1838	32.2266	61.0283	32.2266	61.3205	32.2266	60.8909	32.2266	61.4131	32.2266	60.8182	32.2266	61.448	32.2266	60.8595	32.2266	61.4249	32.2266	61.0552	32.2266	61.3586	32.2266	61.4225	32.2266	61.2836	32.2266	61.9488	32.2266	61.2571	32.2266	62.5967	32.2266	61.3532	32.2266	63.3164	32.2266	61.6404	32.2266	64.0586	32.2266	62.1476	32.2266	64.7806	32.2266	62.844	32.2266	65.4484	32.2266	63.653	32.2266	66.0352	32.2266	64.4861	32.2266	66.5193	32.2266	65.2688	32.2266	66.8832	32.2266	65.9492	32.2266	67.1123	32.2266	66.4948	32.2266	67.1945	32.2266	66.888	32.2266	67.1214
33.6914	63.4138	33.6914	63.2908	33.6914	63.5231	33.6914	63.181	33.6914	63.5999	33.6914	63.1174	33.6914	63.6337	33.6914	63.1354	33.6914	63.6241	33.6914	63.2661	33.6914	63.5823	33.6914	63.5276	33.6914	63.5339	33.6914	63.9195	33.6914	63.5205	33.6914	64.4223	33.6914	63.5959	33.6914	65.0028	33.6914	63.8121	33.6914	65.6226	33.6914	64.1978	33.6914	66.2438	33.6914	64.7418	33.6914	66.8326	33.6914	65.3946	33.6914	67.3606	33.6914	66.0884	33.6914	67.8038	33.6914	66.7579	33.6914	68.1425	33.6914	67.3512	33.6914	68.3602	33.6914	67.8329	33.6914	68.4443	33.6914	68.1813	33.6914	68.3859
35.1562	64.5481	35.1562	64.4219	35.1562	64.6641	35.1562	64.3109	35.1562	64.7516	35.1562	64.2462	35.1562	64.8008	35.1562	64.2608	35.1562	64.8107	35.1562	64.3833	35.1562	64.7912	35.1562	64.6303	35.1562	64.7651	35.1562	65.0014	35.1562	64.769	35.1562	65.4788	35.1562	64.8498	35.1562	66.0318	35.1562	65.0533	35.1562	66.6242	35.1562	65.4064	35.1562	67.2199	35.1562	65.9022	35.1562	67.7865	35.1562	66.5002	35.1562	68.2959	35.1562	67.1412	35.1562	68.7248	35.1562	67.7648	35.1562	69.0536	35.1562	68.3214	35.1562	69.2661	35.1562	68.7754	35.1562	69.3501	35.1562	69.1046	35.1562	69.2973
36.6211	65.8176	36.6211	65.7252	36.6211	65.9081	36.6211	65.6522	36.6211	65.981	36.6211	65.6244	36.6211	66.028	36.6211	65.668	36.6211	66.0488	36.6211	65.8052	36.6211	66.053	36.6211	66.0488	36.6211	66.061	36.6211	66.3984	36.6211	66.1043	36.6211	66.8402	36.6211	66.2216	36.6211	67.3497	36.6211	66.4487	36.6211	67.8969	36.6211	66.8046	36.6211	68.4504	36.6211	67.2811	36.6211	68.9808	36.6211	67.8433	36.6211	69.4617	36.6211	68.4403	36.6211	69.87	36.6211	69.0196	36.6211	70.186	36.6211	69.5365	36.6211	70.3936	36.6211	69.9578	36.6211	70.48	36.6211	70.2619	36.6211	70.4371
38.0859	67.4143	38.0859	67.343	38.0859	67.4837	38.0859	67.2861	38.0859	67.5396	38.0859	67.2623	38.0859	67.5752	38.0859	67.2916	38.0859	67.5902	38.0859	67.3917	38.0859	67.5916	38.0859	67.5747	38.0859	67.5949	38.0859	67.844	38.0859	67.6245	38.0859	68.1933	38.0859	67.7106	38.0859	68.6067	38.0859	67.8829	38.0859	69.0616	38.0859	68.16	38.0859	69.5319	38.0859	68.5412	38.0859	69.9908	38.0859	69.0029	38.0859	70.4127	38.0859	69.5059	38.0859	70.7744	38.0859	70.0052	38.0859	71.0557	38.0859	70.4593	38.0859	71.24	38.0859	70.8355	38.0859	71.3148	38.0859	71.111	38.0859	71.2724
39.5508	68.6743	39.5508	68.6013	39.5508	68.7474	39.5508	68.5427	39.5508	68.8106	39.5508	68.5153	39.5508	68.8582	39.5508	68.537	39.5508	68.8905	39.5508	68.6243	39.5508	68.9139	39.5508	68.789	39.5508	68.9424	39.5508	69.0354	39.5508	68.9966	39.5508	69.359	39.5508	69.1019	39.5508	69.7464	39.5508	69.2824	39.5508	70.1774	39.5508	69.5528	39.5508	70.628	39.5508	69.9118	39.5508	71.0725	39.5508	70.3395	39.5508	71.4862	39.5508	70.802	39.5508	71.8459	39.5508	71.2594	39.5508	72.1315	39.5508	71.674	39.5508	72.326	39.5508	72.0147	39.5508	72.4165	39.5508	72.2594	39.5508	72.395
41.0156	69.8448	41.0156	69.7763	41.0156	69.9144	41.0156	69.7212	41.0156	69.9762	41.0156	69.6944	41.0156	70.0258	41.0156	69.712	41.0156	70.0637	41.0156	69.7891	41.0156	70.0959	41.0156	69.9371	41.0156	70.1347	41.0156	70.1609	41.0156	70.1978	41.0156	70.4576	41.0156	70.3068	41.0156	70.816	41.0156	70.4819	41.0156	71.2183	41.0156	70.7355	41.0156	71.6423	41.0156	71.0667	41.0156	72.0638	41.0156	71.4587	41.0156	72.4585	41.0156	71.8825	41.0156	72.804	41.0156	72.3026	41.0156	73.08	41.0156	72.6843	41.0156	73.27	41.0156	72.9985	41.0156	73.3612	41.0156	73.2236	41.0156	73.3463
42.4805	71.0683	42.4805	71.0032	42.4805	71.1378	42.4805	70.9532	42.4805	71.2038	42.4805	70.9308	42.4805	71.2622	42.4805	70.9496	42.4805	71.3127	42.4805	71.022	42.4805	71.36	42.4805	71.1575	42.4805	71.4135	42.4805	71.3604	42.4805	71.4871	42.4805	71.6285	42.4805	71.598	42.4805	71.9529	42.4805	71.7621	42.4805	72.3185	42.4805	71.9903	42.4805	72.706	42.4805	72.2829	42.4805	73.0938	42.4805	72.6276	42.4805	73.4596	42.4805	73.0009	42.4805	73.7819	42.4805	73.3731	42.4805	74.0415	42.4805	73.7133	42.4805	74.2221	42.4805	73.9944	42.4805	74.3117	42.4805	74.1954	42.4805	74.3032
43.9453	72.1063	43.9453	72.0457	43.9453	72.1728	43.9453	72.0006	43.9453	72.2382	43.9453	71.9821	43.9453	72.2988	43.9453	72.002	43.9453	72.3542	43.9453	72.0713	43.9453	72.4084	43.9453	72.1982	43.9453	72.4693	43.9453	72.3868	43.9453	72.5487	43.9453	72.6353	43.9453	72.6607	43.9453	72.9362	43.9453	72.819	43.9453	73.2764	43.9453	73.0327	43.9453	73.6384	43.9453	73.3025	43.9453	74.0023	43.9453	73.6183	43.9453	74.3473	43.9453	73.9601	43.9453	74.6529	43.9453	74.3016	43.9453	74.9004	43.9453	74.6148	43.9453	75.074	43.9453	74.874	43.9453	75.1619	43.9453	75.0593	43.9453	75.1572
45.4102	72.9546	45.4102	72.9052	45.4102	73.0147	45.4102	72.8744	45.4102	73.0794	45.4102	72.8712	45.4102	73.1448	45.4102	72.9048	45.4102	73.2099	45.4102	72.9834	45.4102	73.2768	45.4102	73.1128	45.4102	73.3513	45.4102	73.2957	45.4102	73.442	45.4102	73.5301	45.4102	73.5599	45.4102	73.8091	45.4102	73.7154	45.4102	74.1217	45.4102	73.916	45.4102	74.4528	45.4102	74.1622	45.4102	74.785	45.4102	74.4465	45.4102	75.0996	45.4102	74.7526	45.4102	75.3781	45.4102	75.0587	45.4102	75.6034	45.4102	75.3404	45.4102	75.7609	45.4102	75.5749	45.4102	75.8397	45.4102	75.7437	45.4102	75.8341
46.875	74.2157	46.875	74.1683	46.875	74.2693	46.875	74.1336	46.875	74.3244	46.875	74.1192	46.875	74.3785	46.875	74.1334	46.875	74.4313	46.875	74.1843	46.875	74.4852	46.875	74.2787	46.875	74.5456	46.875	74.4209	46.875	74.6205	46.875	74.6114	46.875	74.7194	46.875	74.8464	46.875	74.8522	46.875	75.1174	46.875	75.0256	46.875	75.4117	46.875	75.2412	46.875	75.7137	46.875	75.4927	46.875	76.0055	46.875	75.766	46.875	76.2688	46.875	76.041	46.875	76.4861	46.875	76.2949	46.875	76.6424	46.875	76.5056	46.875	76.726	46.875	76.655	46.875	76.7304
48.3398	74.8957	48.3398	74.8501	48.3398	74.9507	48.3398	74.8197	48.3398	75.0108	48.3398	74.8112	48.3398	75.0735	48.3398	74.8319	48.3398	75.1384	48.3398	74.889	48.3398	75.2073	48.3398	74.9879	48.3398	75.2845	48.3398	75.1321	48.3398	75.3763	48.3398	75.3216	48.3398	75.4903	48.3398	75.5524	48.3398	75.6339	48.3398	75.8166	48.3398	75.8122	48.3398	76.1026	48.3398	76.0256	48.3398	76.3957	48.3398	76.268	48.3398	76.6795	48.3398	76.5267	48.3398	76.9367	48.3398	76.7837	48.3398	77.1508	48.3398	77.0186	48.3398	77.3074	48.3398	77.2113	48.3398	77.3954	48.3398	77.345	48.3398	77.4081
51.2695	76.3148	51.2695	76.2751	51.2695	76.3664	51.2695	76.2513	51.2695	76.4268	51.2695	76.2481	51.2695	76.494	51.2695	76.27	51.2695	76.567	51.2695	76.3218	51.2695	76.6464	51.2695	76.407	51.2695	76.7341	51.2695	76.5279	51.2695	76.8331	51.2695	76.6846	51.2695	76.9476	51.2695	76.8747	51.2695	77.0813	51.2695	77.0928	51.2695	77.2369	51.2695	77.3305	51.2695	77.4143	51.2695	77.5766	51.2695	77.6094	51.2695	77.8179	51.2695	77.8135	51.2695	78.0399	51.2695	78.0139	51.2695	78.2284	51.2695	78.1952	51.2695	78.3705	51.2695	78.3417	51.2695	78.4561	51.2695	78.4397	51.2695	78.4794
52.7344	76.909	52.7344	76.8718	52.7344	76.9589	52.7344	76.8507	52.7344	77.019	52.7344	76.8493	52.7344	77.0873	52.7344	76.8714	52.7344	77.1628	52.7344	76.9208	52.7344	77.2456	52.7344	77.0003	52.7344	77.3367	52.7344	77.1119	52.7344	77.438	52.7344	77.2557	52.7344	77.5522	52.7344	77.4299	52.7344	77.6818	52.7344	77.6299	52.7344	77.8287	52.7344	77.8487	52.7344	77.9926	52.7344	78.0763	52.7344	78.17	52.7344	78.301	52.7344	78.3537	52.7344	78.5093	52.7344	78.5328	52.7344	78.688	52.7344	78.6938	52.7344	78.8246	52.7344	78.8227	52.7344	78.9096	52.7344	78.9069	52.7344	78.9373
54.1992	77.404	54.1992	77.3695	54.1992	77.4514	54.1992	77.3504	54.1992	77.5095	54.1992	77.3494	54.1992	77.5768	54.1992	77.3695	54.1992	77.6522	54.1992	77.4135	54.1992	77.7352	54.1992	77.4842	54.1992	77.8261	54.1992	77.583	54.1992	77.9258	54.1992	77.7107	54.1992	78.0357	54.1992	77.8659	54.1992	78.1576	54.1992	78.0452	54.1992	78.2926	54.1992	78.2426	54.1992	78.4403	54.1992	78.4496	54.1992	78.5981	54.1992	78.6556	54.1992	78.76	54.1992	78.8485	54.1992	78.9167	54.1992	79.0156	54.1992	79.0568	54.1992	79.1453	54.1992	79.1677	54.1992	79.2285	54.1992	79.2382	54.1992	79.2598
55.6641	77.8032	55.6641	77.7708	55.6641	77.8491	55.6641	77.7538	55.6641	77.9068	55.6641	77.7544	55.6641	77.9748	55.6641	77.7749	55.6641	78.0518	55.6641	77.8173	55.6641	78.1371	55.6641	77.8838	55.6641	78.2303	55.6641	77.9756	55.6641	78.3315	55.6641	78.0931	55.6641	78.4413	55.6641	78.2355	55.6641	78.5604	55.6641	78.3999	55.6641	78.6892	55.6641	78.5814	55.6641	78.8272	55.6641	78.7725	55.6641	78.9717	55.6641	78.964	55.6641	79.1177	55.6641	79.1447	55.6641	79.2572	55.6641	79.3031	55.6641	79.3803	55.6641	79.4282	55.6641	79.4758	55.6641	79.5112	55.6641	79.5338	55.6641	79.5467
58.5938	78.5252	58.5938	78.493	58.5938	78.5708	58.5938	78.4753	58.5938	78.6289	58.5938	78.4732	58.5938	78.6983	58.5938	78.4877	58.5938	78.7779	58.5938	78.5202	58.5938	78.8661	58.5938	78.5718	58.5938	78.9616	58.5938	78.6437	58.5938	79.0628	58.5938	78.7363	58.5938	79.1686	58.5938	78.8495	58.5938	79.2779	58.5938	78.9816	58.5938	79.3899	58.5938	79.1295	58.5938	79.5035	58.5938	79.2878	58.5938	79.6165	58.5938	79.4495	58.5938	79.7258	58.5938	79.6056	58.5938	79.8259	58.5938	79.7464	58.5938	79.91	58.5938	79.8625	58.5938	79.9703	58.5938	79.9461	58.5938	79.9996	58.5938	79.9923
60.0586	78.7364	60.0586	78.7053	60.0586	78.7806	60.0586	78.6878	60.0586	78.8371	60.0586	78.6849	60.0586	78.9049	60.0586	78.6974	60.0586	78.9828	60.0586	78.7262	60.0586	79.0692	60.0586	78.7723	60.0586	79.1625	60.0586	78.8367	60.0586	79.2607	60.0586	78.92	60.0586	79.3623	60.0586	79.0219	60.0586	79.4658	60.0586	79.1414	60.0586	79.5698	60.0586	79.2758	60.0586	79.673	60.0586	79.4206	60.0586	79.7739	60.0586	79.5693	60.0586	79.8695	60.0586	79.714	60.0586	79.9557	60.0586	79.8458	60.0586	80.0266	60.0586	79.9559	60.0586	80.0757	60.0586	80.0369	60.0586	80.0965	60.0586	80.0843
62.9883	79.1241	62.9883	79.0924	62.9883	79.1697	62.9883	79.0749	62.9883	79.2289	62.9883	79.0713	62.9883	79.3008	62.9883	79.0817	62.9883	79.3839	62.9883	79.1061	62.9883	79.476	62.9883	79.1447	62.9883	79.5745	62.9883	79.1982	62.9883	79.6764	62.9883	79.2667	62.9883	79.7789	62.9883	79.3507	62.9883	79.8792	62.9883	79.4496	62.9883	79.9752	62.9883	79.562	62.9883	80.0649	62.9883	79.6849	62.9883	80.1467	62.9883	79.8138	62.9883	80.2186	62.9883	79.9425	62.9883	80.278	62.9883	80.0637	62.9883	80.3212	62.9883	80.1698	62.9883	80.3439	62.9883	80.2542	62.9883	80.3419	62.9883	80.3122
64.4531	79.2827	64.4531	79.2494	64.4531	79.3301	64.4531	79.2303	64.4531	79.3912	64.4531	79.2251	64.4531	79.4652	64.4531	79.2335	64.4531	79.5505	64.4531	79.2555	64.4531	79.6448	64.4531	79.291	64.4531	79.7454	64.4531	79.3403	64.4531	79.849	64.4531	79.4037	64.4531	79.9522	64.4531	79.4815	64.4531	80.0519	64.4531	79.5733	64.4531	80.1453	64.4531	79.678	64.4531	80.2303	64.4531	79.7931	64.4531	80.305	64.4531	79.9149	64.4531	80.3677	64.4531	80.0377	64.4531	80.4161	64.4531	80.1551	64.4531	80.4475	64.4531	80.26	64.4531	80.4588	64.4531	80.3462	64.4531	80.4467	64.4531	80.4092
67.3828	79.5084	67.3828	79.4757	67.3828	79.5572	67.3828	79.4587	67.3828	79.6219	67.3828	79.4565	67.3828	79.7015	67.3828	79.4681	67.3828	79.794	67.3828	79.4925	67.3828	79.8966	67.3828	79.5287	67.3828	80.0057	67.3828	79.5763	67.3828	80.1168	67.3828	79.635	67.3828	80.2256	67.3828	79.7048	67.3828	80.3277	67.3828	79.7856	67.3828	80.4193	67.3828	79.8769	67.3828	80.4977	67.3828	79.9772	67.3828	80.5607	67.3828	80.0843	67.3828	80.6072	67.3828	80.1941	67.3828	80.6363	67.3828	80.3017	67.3828	80.6469	67.3828	80.4018	67.3828	80.6381	67.3828	80.4889	67.3828	80.6088	67.3828	80.5588
