"SPL Horizontal"																																																																							
"On-Axis"		"10°"		"-10°"		"20°"		"-20°"		"30°"		"-30°"		"40°"		"-40°"		"50°"		"-50°"		"60°"		"-60°"		"70°"		"-70°"		"80°"		"-80°"		"90°"		"-90°"		"100°"		"-100°"		"110°"		"-110°"		"120°"		"-120°"		"130°"		"-130°"		"140°"		"-140°"		"150°"		"-150°"		"160°"		"-160°"		"170°"		"-170°"		"180°"	
"Frequency / Hz"	"Sound Pressure Level / dB (re 20 µPa/V)  [2.83  V @ 1. m]"	"Frequency / Hz"	"Sound Pressure Level / dB (re 20 µPa/V)  [2.83  V @ 1. m]"	"Frequency / Hz"	"Sound Pressure Level / dB (re 20 µPa/V)  [2.83  V @ 1. m]"	"Frequency / Hz"	"Sound Pressure Level / dB (re 20 µPa/V)  [2.83  V @ 1. m]"	"Frequency / Hz"	"Sound Pressure Level / dB (re 20 µPa/V)  [2.83  V @ 1. m]"	"Frequency / Hz"	"Sound Pressure Level / dB (re 20 µPa/V)  [2.83  V @ 1. m]"	"Frequency / Hz"	"Sound Pressure Level / dB (re 20 µPa/V)  [2.83  V @ 1. m]"	"Frequency / Hz"	"Sound Pressure Level / dB (re 20 µPa/V)  [2.83  V @ 1. m]"	"Frequency / Hz"	"Sound Pressure Level / dB (re 20 µPa/V)  [2.83  V @ 1. m]"	"Frequency / Hz"	"Sound Pressure Level / dB (re 20 µPa/V)  [2.83  V @ 1. m]"	"Frequency / Hz"	"Sound Pressure Level / dB (re 20 µPa/V)  [2.83  V @ 1. m]"	"Frequency / Hz"	"Sound Pressure Level / dB (re 20 µPa/V)  [2.83  V @ 1. m]"	"Frequency / Hz"	"Sound Pressure Level / dB (re 20 µPa/V)  [2.83  V @ 1. m]"	"Frequency / Hz"	"Sound Pressure Level / dB (re 20 µPa/V)  [2.83  V @ 1. m]"	"Frequency / Hz"	"Sound Pressure Level / dB (re 20 µPa/V)  [2.83  V @ 1. m]"	"Frequency / Hz"	"Sound Pressure Level / dB (re 20 µPa/V)  [2.83  V @ 1. m]"	"Frequency / Hz"	"Sound Pressure Level / dB (re 20 µPa/V)  [2.83  V @ 1. m]"	"Frequency / Hz"	"Sound Pressure Level / dB (re 20 µPa/V)  [2.83  V @ 1. m]"	"Frequency / Hz"	"Sound Pressure Level / dB (re 20 µPa/V)  [2.83  V @ 1. m]"	"Frequency / Hz"	"Sound Pressure Level / dB (re 20 µPa/V)  [2.83  V @ 1. m]"	"Frequency / Hz"	"Sound Pressure Level / dB (re 20 µPa/V)  [2.83  V @ 1. m]"	"Frequency / Hz"	"Sound Pressure Level / dB (re 20 µPa/V)  [2.83  V @ 1. m]"	"Frequency / Hz"	"Sound Pressure Level / dB (re 20 µPa/V)  [2.83  V @ 1. m]"	"Frequency / Hz"	"Sound Pressure Level / dB (re 20 µPa/V)  [2.83  V @ 1. m]"	"Frequency / Hz"	"Sound Pressure Level / dB (re 20 µPa/V)  [2.83  V @ 1. m]"	"Frequency / Hz"	"Sound Pressure Level / dB (re 20 µPa/V)  [2.83  V @ 1. m]"	"Frequency / Hz"	"Sound Pressure Level / dB (re 20 µPa/V)  [2.83  V @ 1. m]"	"Frequency / Hz"	"Sound Pressure Level / dB (re 20 µPa/V)  [2.83  V @ 1. m]"	"Frequency / Hz"	"Sound Pressure Level / dB (re 20 µPa/V)  [2.83  V @ 1. m]"	"Frequency / Hz"	"Sound Pressure Level / dB (re 20 µPa/V)  [2.83  V @ 1. m]"	"Frequency / Hz"	"Sound Pressure Level / dB (re 20 µPa/V)  [2.83  V @ 1. m]"	"Frequency / Hz"	"Sound Pressure Level / dB (re 20 µPa/V)  [2.83  V @ 1. m]"	"Frequency / Hz"	"Sound Pressure Level / dB (re 20 µPa/V)  [2.83  V @ 1. m]"	"Frequency / Hz"	"Sound Pressure Level / dB (re 20 µPa/V)  [2.83  V @ 1. m]"	"Frequency / Hz"	"Sound Pressure Level / dB (re 20 µPa/V)  [2.83  V @ 1. m]"	"Frequency / Hz"	"Sound Pressure Level / dB (re 20 µPa/V)  [2.83  V @ 1. m]"
20.5078	47.6083	20.5078	47.5632	20.5078	47.3559	20.5078	47.21	20.5078	46.8222	20.5078	46.546	20.5078	46.0573	20.5078	45.6161	20.5078	45.2294	20.5078	44.6397	20.5078	44.7689	20.5078	44.2212	20.5078	45.2763	20.5078	45.0718	20.5078	46.8335	20.5078	46.9951	20.5078	48.8805	20.5078	49.2234	20.5078	50.9301	20.5078	51.3187	20.5078	52.7826	20.5078	53.1573	20.5078	54.3893	20.5078	54.7295	20.5078	55.7521	20.5078	56.0519	20.5078	56.8841	20.5078	57.1407	20.5078	57.7961	20.5078	58.0056	20.5078	58.4925	20.5078	58.6491	20.5078	58.9722	20.5078	59.0695	20.5078	59.2308	20.5078	59.2638
21.9727	46.7425	21.9727	46.598	21.9727	46.6597	21.9727	46.2314	21.9727	46.3887	21.9727	45.7145	21.9727	46.0332	21.9727	45.2567	21.9727	45.8089	21.9727	45.2598	21.9727	46.043	21.9727	46.0978	21.9727	46.972	21.9727	47.6839	21.9727	48.4903	21.9727	49.5933	21.9727	50.2733	21.9727	51.4939	21.9727	52.0558	21.9727	53.2384	21.9727	53.7044	21.9727	54.7827	21.9727	55.1706	21.9727	56.1216	21.9727	56.4438	21.9727	57.2607	21.9727	57.5253	21.9727	58.2049	21.9727	58.4168	21.9727	58.9547	21.9727	59.1156	21.9727	59.5061	21.9727	59.6151	21.9727	59.8523	21.9727	59.9076	21.9727	59.9872
23.4375	52.0958	23.4375	52.0289	23.4375	52.0134	23.4375	51.8077	23.4375	51.8043	23.4375	51.4482	23.4375	51.515	23.4375	51.0035	23.4375	51.23	23.4375	50.5923	23.4375	51.0816	23.4375	50.4189	23.4375	51.2293	23.4375	50.711	23.4375	51.7808	23.4375	51.5506	23.4375	52.7128	23.4375	52.7928	23.4375	53.8895	23.4375	54.2025	23.4375	55.1547	23.4375	55.5996	23.4375	56.3918	23.4375	56.8849	23.4375	57.5302	23.4375	58.0118	23.4375	58.5295	23.4375	58.9597	23.4375	59.3654	23.4375	59.7184	23.4375	60.0208	23.4375	60.2811	23.4375	60.4833	23.4375	60.642	23.4375	60.7436	23.4375	60.797
24.9023	54.2334	24.9023	54.1713	24.9023	54.1497	24.9023	53.9621	24.9023	53.9309	24.9023	53.6165	24.9023	53.6014	24.9023	53.1664	24.9023	53.2095	24.9023	52.6837	24.9023	52.8441	24.9023	52.3021	24.9023	52.6439	24.9023	52.2126	24.9023	52.7683	24.9023	52.579	24.9023	53.3087	24.9023	53.4094	24.9023	54.2156	24.9023	54.5475	24.9023	55.3367	24.9023	55.7964	24.9023	56.5142	24.9023	57.0109	24.9023	57.6359	24.9023	58.1082	24.9023	58.6349	24.9023	59.0462	24.9023	59.4731	24.9023	59.8035	24.9023	60.1286	24.9023	60.3681	24.9023	60.588	24.9023	60.7325	24.9023	60.8437	24.9023	60.8919
26.3672	52.8169	26.3672	52.735	26.3672	52.74	26.3672	52.5009	26.3672	52.5148	26.3672	52.1445	26.3672	52.1743	26.3672	51.7371	26.3672	51.7906	26.3672	51.4172	26.3672	51.4971	26.3672	51.3902	26.3672	51.4879	26.3672	51.8411	26.3672	51.9364	26.3672	52.7862	26.3672	52.8606	26.3672	54.0579	26.3672	54.1055	26.3672	55.4449	26.3672	55.4697	26.3672	56.7953	26.3672	56.8041	26.3672	58.0256	26.3672	58.0241	26.3672	59.0948	26.3672	59.087	26.3672	59.9832	26.3672	59.9722	26.3672	60.6807	26.3672	60.6692	26.3672	61.1814	26.3672	61.1719	26.3672	61.4819	26.3672	61.4765	26.3672	61.5802
27.832	53.6455	27.832	53.67	27.832	53.4639	27.832	53.5459	27.832	53.1432	27.832	53.311	27.832	52.7405	27.832	53.0471	27.832	52.3762	27.832	52.897	27.832	52.2503	27.832	53.0491	27.832	52.5822	27.832	53.6451	27.832	53.4526	27.832	54.6694	27.832	54.7261	27.832	55.9643	27.832	56.176	27.832	57.3477	27.832	57.624	27.832	58.6887	27.832	58.9691	27.832	59.9123	27.832	60.1635	27.832	60.9789	27.832	61.1865	27.832	61.8684	27.832	62.0289	27.832	62.5704	27.832	62.6856	27.832	63.0794	27.832	63.1532	27.832	63.3925	27.832	63.4284	27.832	63.5087
29.2969	58.9486	29.2969	58.9388	29.2969	58.9207	29.2969	58.892	29.2969	58.87	29.2969	58.825	29.2969	58.8273	29.2969	58.7711	29.2969	58.8391	29.2969	58.7799	29.2969	58.9613	29.2969	58.9102	29.2969	59.2454	29.2969	59.2139	29.2969	59.7187	29.2969	59.7152	29.2969	60.3706	29.2969	60.3977	29.2969	61.1564	29.2969	61.2103	29.2969	62.0135	29.2969	62.0862	29.2969	62.879	29.2969	62.9612	29.2969	63.6999	29.2969	63.7826	29.2969	64.4354	29.2969	64.5111	29.2969	65.0556	29.2969	65.1188	29.2969	65.5395	29.2969	65.5866	29.2969	65.8728	29.2969	65.9016	29.2969	66.0464	29.2969	66.0562
30.7617	60.1557	30.7617	60.0724	30.7617	60.1911	30.7617	59.946	30.7617	60.1871	30.7617	59.7964	30.7617	60.1648	30.7617	59.6615	30.7617	60.1579	30.7617	59.598	30.7617	60.2113	30.7617	59.6746	30.7617	60.3741	30.7617	59.9517	30.7617	60.6868	30.7617	60.4537	30.7617	61.1658	30.7617	61.1539	30.7617	61.7941	30.7617	61.9854	30.7617	62.5268	30.7617	62.8688	30.7617	63.306	30.7617	63.7343	30.7617	64.0751	30.7617	64.5296	30.7617	64.7872	30.7617	65.2187	30.7617	65.4066	30.7617	65.7778	30.7617	65.9079	30.7617	66.1916	30.7617	66.273	30.7617	66.4505	30.7617	66.4896	30.7617	66.55
32.2266	61.1838	32.2266	61.1656	32.2266	61.1606	32.2266	61.1098	32.2266	61.1039	32.2266	61.0332	32.2266	61.0335	32.2266	60.9661	32.2266	60.9823	32.2266	60.9525	32.2266	60.9936	32.2266	61.0442	32.2266	61.1162	32.2266	61.2882	32.2266	61.3903	32.2266	61.7083	32.2266	61.8332	32.2266	62.2933	32.2266	62.4293	32.2266	62.9999	32.2266	63.1351	32.2266	63.7686	32.2266	63.893	32.2266	64.5394	32.2266	64.6466	32.2266	65.2615	32.2266	65.3484	32.2266	65.8961	32.2266	65.9621	32.2266	66.4151	32.2266	66.4615	32.2266	66.7995	32.2266	66.8285	32.2266	67.037	32.2266	67.0509	32.2266	67.1214
33.6914	63.4138	33.6914	63.4225	33.6914	63.3756	33.6914	63.4045	33.6914	63.3139	33.6914	63.3718	33.6914	63.2438	33.6914	63.3451	33.6914	63.19	33.6914	63.354	33.6914	63.1858	33.6914	63.4328	33.6914	63.2688	33.6914	63.6149	33.6914	63.4727	33.6914	63.9218	33.6914	63.8159	33.6914	64.3555	33.6914	64.293	33.6914	64.8952	33.6914	64.8748	33.6914	65.5031	33.6914	65.5163	33.6914	66.1338	33.6914	66.1688	33.6914	66.7426	33.6914	66.7876	33.6914	67.2912	33.6914	67.3364	33.6914	67.7489	33.6914	67.7873	33.6914	68.093	33.6914	68.1205	33.6914	68.3084	33.6914	68.3226	33.6914	68.3859
35.1562	64.5481	35.1562	64.5406	35.1562	64.5295	35.1562	64.5094	35.1562	64.4906	35.1562	64.4653	35.1562	64.4459	35.1562	64.4277	35.1562	64.4177	35.1562	64.4242	35.1562	64.4357	35.1562	64.488	35.1562	64.5324	35.1562	64.6514	35.1562	64.7363	35.1562	64.9366	35.1562	65.0625	35.1562	65.3471	35.1562	65.5067	35.1562	65.8641	35.1562	66.0443	35.1562	66.4515	35.1562	66.637	35.1562	67.0649	35.1562	67.2418	35.1562	67.6603	35.1562	67.8178	35.1562	68.1992	35.1562	68.3301	35.1562	68.6514	35.1562	68.7515	35.1562	68.9941	35.1562	69.0614	35.1562	69.2124	35.1562	69.2461	35.1562	69.2973
36.6211	65.8176	36.6211	65.8136	36.6211	65.8055	36.6211	65.7961	36.6211	65.7822	36.6211	65.7749	36.6211	65.7596	36.6211	65.7669	36.6211	65.7568	36.6211	65.7956	36.6211	65.7986	36.6211	65.8877	36.6211	65.9117	36.6211	66.0685	36.6211	66.1195	36.6211	66.3543	36.6211	66.4348	36.6211	66.7468	36.6211	66.8544	36.6211	67.2305	36.6211	67.3581	36.6211	67.7755	36.6211	67.9135	36.6211	68.3444	36.6211	68.482	36.6211	68.8985	36.6211	69.026	36.6211	69.4026	36.6211	69.5122	36.6211	69.8276	36.6211	69.9136	36.6211	70.1511	36.6211	70.21	36.6211	70.3573	36.6211	70.3872	36.6211	70.4371
38.0859	67.4143	38.0859	67.4149	38.0859	67.4011	38.0859	67.404	38.0859	67.3799	38.0859	67.3883	38.0859	67.3606	38.0859	67.3801	38.0859	67.3578	38.0859	67.3972	38.0859	67.3903	38.0859	67.4609	38.0859	67.4785	38.0859	67.5925	38.0859	67.6409	38.0859	67.8083	38.0859	67.889	38.0859	68.1141	38.0859	68.2232	38.0859	68.502	38.0859	68.631	38.0859	68.9509	38.0859	69.0891	38.0859	69.4307	38.0859	69.567	38.0859	69.9075	38.0859	70.0324	38.0859	70.3485	38.0859	70.4546	38.0859	70.725	38.0859	70.8075	38.0859	71.0143	38.0859	71.0703	38.0859	71.2	38.0859	71.2283	38.0859	71.2724
39.5508	68.6743	39.5508	68.6711	39.5508	68.6685	39.5508	68.6607	39.5508	68.6572	39.5508	68.6498	39.5508	68.649	39.5508	68.65	39.5508	68.6567	39.5508	68.6774	39.5508	68.6971	39.5508	68.7502	39.5508	68.7882	39.5508	68.8865	39.5508	68.9463	39.5508	69.0994	39.5508	69.1818	39.5508	69.3934	39.5508	69.4957	39.5508	69.7613	39.5508	69.8779	39.5508	70.1852	39.5508	70.3083	39.5508	70.6385	39.5508	70.7596	39.5508	71.0905	39.5508	71.2018	39.5508	71.5103	39.5508	71.6054	39.5508	71.8703	39.5508	71.9445	39.5508	72.1477	39.5508	72.1983	39.5508	72.3259	39.5508	72.3515	39.5508	72.395
41.0156	69.8448	41.0156	69.8436	41.0156	69.8396	41.0156	69.8374	41.0156	69.8309	41.0156	69.8322	41.0156	69.8259	41.0156	69.8381	41.0156	69.8362	41.0156	69.869	41.0156	69.8764	41.0156	69.9408	41.0156	69.9626	41.0156	70.0692	41.0156	70.1098	41.0156	70.2663	41.0156	70.328	41.0156	70.5371	41.0156	70.6189	41.0156	70.8763	41.0156	70.9743	41.0156	71.2686	41.0156	71.3762	41.0156	71.6902	41.0156	71.7997	41.0156	72.1129	41.0156	72.2164	41.0156	72.5074	41.0156	72.5981	41.0156	72.8472	41.0156	72.9196	41.0156	73.1102	41.0156	73.1604	41.0156	73.2799	41.0156	73.3056	41.0156	73.3463
42.4805	71.0683	42.4805	71.066	42.4805	71.0684	42.4805	71.0626	42.4805	71.0686	42.4805	71.0633	42.4805	71.0751	42.4805	71.0765	42.4805	71.0973	42.4805	71.1139	42.4805	71.1471	42.4805	71.1887	42.4805	71.2374	42.4805	71.3138	42.4805	71.3798	42.4805	71.4992	42.4805	71.5822	42.4805	71.7486	42.4805	71.8461	42.4805	72.0575	42.4805	72.1648	42.4805	72.4128	42.4805	72.524	42.4805	72.7942	42.4805	72.9027	42.4805	73.1772	42.4805	73.2768	42.4805	73.5359	42.4805	73.6213	42.4805	73.8459	42.4805	73.9131	42.4805	74.0866	42.4805	74.1327	42.4805	74.2423	42.4805	74.2657	42.4805	74.3032
43.9453	72.1063	43.9453	72.1065	43.9453	72.1067	43.9453	72.1082	43.9453	72.1098	43.9453	72.1157	43.9453	72.121	43.9453	72.1363	43.9453	72.1482	43.9453	72.1795	43.9453	72.2015	43.9453	72.2566	43.9453	72.2916	43.9453	72.3786	43.9453	72.4283	43.9453	72.5538	43.9453	72.6183	43.9453	72.7856	43.9453	72.8631	43.9453	73.0705	43.9453	73.1576	43.9453	73.3978	43.9453	73.4894	43.9453	73.7498	43.9453	73.8405	43.9453	74.1047	43.9453	74.189	43.9453	74.4386	43.9453	74.5118	43.9453	74.7285	43.9453	74.7866	43.9453	74.9543	43.9453	74.9944	43.9453	75.1005	43.9453	75.121	43.9453	75.1572
45.4102	72.9546	45.4102	72.9634	45.4102	72.9511	45.4102	72.9784	45.4102	72.9548	45.4102	73.003	45.4102	72.9697	45.4102	73.0427	45.4102	73.0021	45.4102	73.1048	45.4102	73.0599	45.4102	73.1976	45.4102	73.1517	45.4102	73.3287	45.4102	73.2849	45.4102	73.5038	45.4102	73.4649	45.4102	73.7245	45.4102	73.6926	45.4102	73.9876	45.4102	73.9638	45.4102	74.2838	45.4102	74.2683	45.4102	74.5988	45.4102	74.5909	45.4102	74.9143	45.4102	74.9126	45.4102	75.2102	45.4102	75.2126	45.4102	75.4663	45.4102	75.4706	45.4102	75.6645	45.4102	75.6686	45.4102	75.7902	45.4102	75.7926	45.4102	75.8341
46.875	74.2157	46.875	74.2252	46.875	74.2091	46.875	74.2382	46.875	74.2071	46.875	74.2571	46.875	74.2135	46.875	74.2865	46.875	74.2339	46.875	74.3327	46.875	74.2755	46.875	74.4031	46.875	74.346	46.875	74.505	46.875	74.453	46.875	74.6448	46.875	74.6022	46.875	74.8258	46.875	74.7959	46.875	75.0471	46.875	75.0316	46.875	75.3027	46.875	75.3014	46.875	75.5807	46.875	75.5917	46.875	75.8652	46.875	75.8847	46.875	76.137	46.875	76.1605	46.875	76.376	46.875	76.3988	46.875	76.5638	46.875	76.5816	46.875	76.6853	46.875	76.695	46.875	76.7304
48.3398	74.8957	48.3398	74.9016	48.3398	74.8965	48.3398	74.9147	48.3398	74.9053	48.3398	74.9373	48.3398	74.925	48.3398	74.9733	48.3398	74.9604	48.3398	75.0281	48.3398	75.0171	48.3398	75.1077	48.3398	75.1016	48.3398	75.218	48.3398	75.2197	48.3398	75.364	48.3398	75.3757	48.3398	75.5481	48.3398	75.571	48.3398	75.7687	48.3398	75.8028	48.3398	76.02	48.3398	76.0635	48.3398	76.2911	48.3398	76.3407	48.3398	76.5669	48.3398	76.6185	48.3398	76.8298	48.3398	76.8785	48.3398	77.061	48.3398	77.1022	48.3398	77.2431	48.3398	77.273	48.3398	77.362	48.3398	77.3777	48.3398	77.4081
51.2695	76.3148	51.2695	76.3223	51.2695	76.3171	51.2695	76.3399	51.2695	76.33	51.2695	76.369	51.2695	76.3553	51.2695	76.4119	51.2695	76.3959	51.2695	76.4717	51.2695	76.4555	51.2695	76.5519	51.2695	76.5378	51.2695	76.6561	51.2695	76.6465	51.2695	76.787	51.2695	76.7841	51.2695	76.946	51.2695	76.9513	51.2695	77.1318	51.2695	77.1457	51.2695	77.3402	51.2695	77.3618	51.2695	77.5631	51.2695	77.5904	51.2695	77.7894	51.2695	77.8194	51.2695	78.005	51.2695	78.0345	51.2695	78.195	51.2695	78.2206	51.2695	78.3448	51.2695	78.3638	51.2695	78.4424	51.2695	78.4524	51.2695	78.4794
52.7344	76.909	52.7344	76.9165	52.7344	76.9125	52.7344	76.9353	52.7344	76.9276	52.7344	76.9663	52.7344	76.9558	52.7344	77.0114	52.7344	76.999	52.7344	77.0726	52.7344	77.06	52.7344	77.1526	52.7344	77.1417	52.7344	77.2541	52.7344	77.2467	52.7344	77.379	52.7344	77.377	52.7344	77.5283	52.7344	77.5328	52.7344	77.7008	52.7344	77.7122	52.7344	77.8927	52.7344	77.9104	52.7344	78.0971	52.7344	78.1196	52.7344	78.3043	52.7344	78.3292	52.7344	78.5019	52.7344	78.5265	52.7344	78.6762	52.7344	78.6977	52.7344	78.8139	52.7344	78.8299	52.7344	78.9036	52.7344	78.9121	52.7344	78.9373
54.1992	77.404	54.1992	77.4125	54.1992	77.4071	54.1992	77.4327	54.1992	77.4221	54.1992	77.4653	54.1992	77.45	54.1992	77.5115	54.1992	77.4923	54.1992	77.5727	54.1992	77.5508	54.1992	77.6508	54.1992	77.6277	54.1992	77.7476	54.1992	77.725	54.1992	77.8642	54.1992	77.844	54.1992	78.0013	54.1992	77.9851	54.1992	78.1577	54.1992	78.1467	54.1992	78.3301	54.1992	78.325	54.1992	78.5127	54.1992	78.5135	54.1992	78.6973	54.1992	78.7029	54.1992	78.8732	54.1992	78.8819	54.1992	79.0285	54.1992	79.038	54.1992	79.1512	54.1992	79.1592	54.1992	79.2307	54.1992	79.2353	54.1992	79.2598
55.6641	77.8032	55.6641	77.8145	55.6641	77.8045	55.6641	77.8384	55.6641	77.8187	55.6641	77.8752	55.6641	77.8464	55.6641	77.9255	55.6641	77.8887	55.6641	77.9902	55.6641	77.9468	55.6641	78.07	55.6641	78.0222	55.6641	78.1661	55.6641	78.1163	55.6641	78.2788	55.6641	78.2299	55.6641	78.4082	55.6641	78.3631	55.6641	78.5531	55.6641	78.5143	55.6641	78.7107	55.6641	78.6799	55.6641	78.8763	55.6641	78.8542	55.6641	79.0428	55.6641	79.029	55.6641	79.2011	55.6641	79.1943	55.6641	79.3408	55.6641	79.3387	55.6641	79.4509	55.6641	79.4513	55.6641	79.5219	55.6641	79.5226	55.6641	79.5467
58.5938	78.5252	58.5938	78.5351	58.5938	78.5285	58.5938	78.5579	58.5938	78.5452	58.5938	78.5933	58.5938	78.5758	58.5938	78.6409	58.5938	78.6203	58.5938	78.7006	58.5938	78.6789	58.5938	78.7723	58.5938	78.7519	58.5938	78.8561	58.5938	78.8391	58.5938	78.9521	58.5938	78.9402	58.5938	79.0601	58.5938	79.0546	58.5938	79.1792	58.5938	79.1804	58.5938	79.3077	58.5938	79.3151	58.5938	79.4419	58.5938	79.4545	58.5938	79.5767	58.5938	79.5927	58.5938	79.7052	58.5938	79.7223	58.5938	79.8191	58.5938	79.835	58.5938	79.9098	58.5938	79.922	58.5938	79.9694	58.5938	79.976	58.5938	79.9923
60.0586	78.7364	60.0586	78.7441	60.0586	78.7419	60.0586	78.7647	60.0586	78.7605	60.0586	78.798	60.0586	78.792	60.0586	78.8437	60.0586	78.8363	60.0586	78.9013	60.0586	78.893	60.0586	78.9703	60.0586	78.962	60.0586	79.0503	60.0586	79.043	60.0586	79.1408	60.0586	79.1356	60.0586	79.2411	60.0586	79.239	60.0586	79.3505	60.0586	79.3522	60.0586	79.4671	60.0586	79.4728	60.0586	79.5882	60.0586	79.5976	60.0586	79.7095	60.0586	79.7216	60.0586	79.8252	60.0586	79.8384	60.0586	79.928	60.0586	79.9404	60.0586	80.01	60.0586	80.0196	60.0586	80.0638	60.0586	80.0691	60.0586	80.0843
62.9883	79.1241	62.9883	79.1297	62.9883	79.1329	62.9883	79.1496	62.9883	79.1559	62.9883	79.183	62.9883	79.1925	62.9883	79.2287	62.9883	79.2417	62.9883	79.2855	62.9883	79.3022	62.9883	79.3519	62.9883	79.3728	62.9883	79.4266	62.9883	79.4523	62.9883	79.5084	62.9883	79.5395	62.9883	79.5965	62.9883	79.6332	62.9883	79.6901	62.9883	79.7321	62.9883	79.788	62.9883	79.8345	62.9883	79.8886	62.9883	79.9377	62.9883	79.9891	62.9883	80.038	62.9883	80.0853	62.9883	80.1307	62.9883	80.1717	62.9883	80.21	62.9883	80.2421	62.9883	80.2699	62.9883	80.2905	62.9883	80.3051	62.9883	80.3122
64.4531	79.2827	64.4531	79.2883	64.4531	79.2919	64.4531	79.3084	64.4531	79.3156	64.4531	79.3422	64.4531	79.3531	64.4531	79.3886	64.4531	79.403	64.4531	79.4459	64.4531	79.464	64.4531	79.5125	64.4531	79.5344	64.4531	79.5869	64.4531	79.6126	64.4531	79.6676	64.4531	79.6971	64.4531	79.7534	64.4531	79.7864	64.4531	79.8432	64.4531	79.8791	64.4531	79.9359	64.4531	79.9737	64.4531	80.0297	64.4531	80.0679	64.4531	80.1221	64.4531	80.1588	64.4531	80.2094	64.4531	80.2425	64.4531	80.2868	64.4531	80.3142	64.4531	80.3492	64.4531	80.3687	64.4531	80.3912	64.4531	80.4014	64.4531	80.4092
67.3828	79.5084	67.3828	79.5117	67.3828	79.5218	67.3828	79.5315	67.3828	79.5513	67.3828	79.5669	67.3828	79.5956	67.3828	79.6162	67.3828	79.6527	67.3828	79.6773	67.3828	79.7201	67.3828	79.7478	67.3828	79.7953	67.3828	79.8252	67.3828	79.8759	67.3828	79.9071	67.3828	79.9596	67.3828	79.9916	67.3828	80.0446	67.3828	80.0769	67.3828	80.1294	67.3828	80.1614	67.3828	80.2124	67.3828	80.2439	67.3828	80.2921	67.3828	80.3224	67.3828	80.3666	67.3828	80.3947	67.3828	80.4333	67.3828	80.4579	67.3828	80.4891	67.3828	80.5085	67.3828	80.5305	67.3828	80.543	67.3828	80.5544	67.3828	80.5588
