Frequency Spectrum for Input Signal

Data Shown:    V2-28 (Community)
Display Parameters:   Frequency: 1000Hz (1/24th Octave)   Mer: 180°  Par: 20°

Freq [Hz]	Signal Level [dBSPL]
22.4	62.2
23	62.7
23.6	63.1
24	63.6
25	64.2
25.8	64.7
26.5	65.2
27.2	65.6
28	66
29	66.4
30	66.9
30.7	67.4
31.5	67.9
32.5	68.4
33.5	68.8
34.5	69.2
35.5	69.6
36.5	70.1
37.5	70.6
38.7	71
40	71.5
41.2	71.9
42.5	72.4
43.7	72.9
45	73.4
46.2	73.8
47.5	74.2
48.7	74.7
50	75.2
51.5	75.7
53	76.2
54.5	76.7
56	77.2
58	77.6
60	78.1
61.5	78.6
63	79.1
65	79.6
67	80.1
69	80.6
71	81
73	81.5
75	82
77.5	82.5
80	83
82.5	83.4
85	83.9
87.5	84.3
90	84.7
92.5	85.2
95	85.6
97.5	86
100	86.3
103	86.7
106	87
109	87.3
112	87.6
115	87.9
118	88.1
122	88.3
125	88.4
128	88.6
132	88.6
136	88.6
140	88.6
145	88.4
150	88.3
155	88
160	87.7
165	87.3
170	86.9
175	86.4
180	86
185	85.7
190	85.6
195	85.8
200	86.2
206	86.9
212	87.6
218	88.3
224	88.9
230	89.4
236	89.7
240	89.9
250	89.9
258	89.7
265	89.3
272	88.8
280	88.1
290	87.4
300	87
307	86.9
315	87.3
325	88
335	88.7
345	89.3
355	89.7
365	89.9
375	89.8
387	89.4
400	88.9
412	88.2
425	87.6
437	87.4
450	87.8
462	88.4
475	88.6
487	88.4
500	87.7
515	87
530	86.9
545	87.5
560	88.1
580	88.4
600	88.7
615	88.9
630	88.9
650	88.2
670	86.2
690	81.3
710	78.2
730	85.1
750	88.2
775	89
800	88.8
825	88.3
850	88
875	87.5
900	86.5
925	85.4
950	84.8
975	84.7
1000	84.7
1030	84.7
1060	84.9
1090	85.4
1120	85.6
1150	85.2
1180	84.2
1220	84.6
1250	86.1
1280	86.6
1320	87.5
1360	88.4
1400	88
1450	87.6
1500	87.6
1550	87.8
1600	88.5
1650	88.4
1700	87.9
1750	87.6
1800	87.8
1850	88.9
1900	90.1
1950	89.2
2000	87.8
2060	89.2
2120	91.6
2180	91.1
2240	90.7
2300	91.1
2360	90.6
2400	88.7
2500	86.5
2580	86
2650	86.7
2720	86.7
2800	88.2
2900	88.3
3000	87.6
3070	86.1
3150	84.9
3250	85
3350	85.3
3450	84.8
3550	85.2
3650	84.8
3750	84.7
3870	84.3
4000	83.6
4120	83.9
4250	84.6
4370	85
4500	85.2
4620	86.3
4750	84.6
4870	83.9
5000	84.4
5150	85.9
5300	85.9
5450	85.8
5600	90.6
5800	91.6
6000	91.2
6150	92.8
6300	94.7
6500	93.8
6700	92.6
6900	92.6
7100	92.8
7300	91.7
7500	91.3
7750	91.1
8000	91.7
8250	89.8
8500	90.8
8750	89.7
9000	92.9
9250	95.2
9500	92.3
9750	89.6
10000	90.4
10300	91.9
10600	92.8
10900	87.4
11200	88.7
11500	87.9
11800	87.2
12200	85.3
12500	84.2
12800	76.3
13200	67
13600	71.1
14000	74.5
14500	78.8
15000	78.4
15500	76
16000	70.6
16500	73.2
17000	69.4
17500	64.3
18000	62
18500	56.4
19000	59.4
19500	64.2
20000	67.6
20600	65.3
21200	67.3
21800	79.6
22400	60.7
