Frequency Spectrum for Input Signal

Data Shown:    V2-28 (Community)
Display Parameters:   Frequency: 1000Hz (1/24th Octave)   Mer: 270°  Par: 20°

Freq [Hz]	Signal Level [dBSPL]
22.4	63
23	63.4
23.6	63.8
24	64.3
25	64.8
25.8	65.3
26.5	65.7
27.2	66.1
28	66.5
29	66.9
30	67.3
30.7	67.8
31.5	68.2
32.5	68.7
33.5	69.1
34.5	69.4
35.5	69.8
36.5	70.3
37.5	70.8
38.7	71.2
40	71.6
41.2	72
42.5	72.5
43.7	73
45	73.4
46.2	73.9
47.5	74.3
48.7	74.8
50	75.3
51.5	75.8
53	76.2
54.5	76.7
56	77.2
58	77.7
60	78.1
61.5	78.7
63	79.2
65	79.6
67	80.1
69	80.6
71	81.1
73	81.6
75	82.1
77.5	82.6
80	83
82.5	83.5
85	84
87.5	84.4
90	84.9
92.5	85.3
95	85.7
97.5	86.1
100	86.5
103	86.9
106	87.2
109	87.5
112	87.8
115	88.1
118	88.3
122	88.5
125	88.6
128	88.8
132	88.8
136	88.9
140	88.8
145	88.7
150	88.5
155	88.2
160	87.9
165	87.5
170	87.1
175	86.6
180	86.2
185	85.9
190	85.8
195	86
200	86.4
206	87
212	87.6
218	88.3
224	88.8
230	89.3
236	89.6
240	89.7
250	89.6
258	89.4
265	89
272	88.4
280	87.7
290	87
300	86.6
307	86.5
315	86.9
325	87.6
335	88.3
345	88.9
355	89.2
365	89.4
375	89.3
387	88.9
400	88.3
412	87.6
425	86.9
437	86.7
450	87.1
462	87.6
475	87.8
487	87.6
500	86.9
515	86.2
530	86
545	86.6
560	87.2
580	87.7
600	88.1
615	88.5
630	88.8
650	88.6
670	86.8
690	81.6
710	74.3
730	78.6
750	83.8
775	85.9
800	86.3
825	86.3
850	86.6
875	86.8
900	86.5
925	85.8
950	85
975	84.4
1000	83.8
1030	83.1
1060	82.6
1090	82
1120	80.6
1150	77.2
1180	69
1220	67.6
1250	73.8
1280	75.4
1320	78.5
1360	82.7
1400	84.9
1450	86.3
1500	87.4
1550	88.2
1600	89.1
1650	89.2
1700	89.4
1750	89
1800	87.6
1850	87.2
1900	87.6
1950	86.5
2000	85.8
2060	87
2120	88.6
2180	88.2
2240	87.9
2300	88.3
2360	88.1
2400	86.2
2500	84.5
2580	84.3
2650	84.2
2720	83.8
2800	85.3
2900	85.5
3000	84.8
3070	83.3
3150	83.3
3250	83.5
3350	84
3450	84.2
3550	85
3650	84.6
3750	84.7
3870	84.2
4000	84.9
4120	86
4250	84.3
4370	83.6
4500	83.6
4620	84.7
4750	82.6
4870	81.9
5000	82.5
5150	83.2
5300	82.2
5450	81.4
5600	86.5
5800	87.2
6000	86.2
6150	86.4
6300	88
6500	86.5
6700	84.1
6900	85
7100	85.5
7300	84.4
7500	85.1
7750	85.4
8000	85.2
8250	84.6
8500	86.2
8750	85.3
9000	82.8
9250	85.4
9500	86.9
9750	85.6
10000	87.9
10300	89.8
10600	92.1
10900	89.4
11200	91.3
11500	87.7
11800	86.6
12200	87.2
12500	86.9
12800	83.2
13200	79.9
13600	80.4
14000	81.6
14500	80.4
15000	79.5
15500	83.2
16000	84.2
16500	83
17000	78.3
17500	73.2
18000	74.4
18500	71.1
19000	74.2
19500	72.6
20000	75.2
20600	73.4
21200	71.7
21800	73.5
22400	61.8
