Frequency Spectrum for Input Signal

Data Shown:    V2-28 (Community)
Display Parameters:   Frequency: 1000Hz (1/24th Octave)   Mer: 180°  Par: 130°

Freq [Hz]	Signal Level [dBSPL]
22.4	58.4
23	59
23.6	59.6
24	60.4
25	61.1
25.8	61.8
26.5	62.4
27.2	63
28	63.6
29	64.2
30	64.7
30.7	65.3
31.5	65.9
32.5	66.5
33.5	67
34.5	67.5
35.5	68
36.5	68.5
37.5	69.1
38.7	69.6
40	70
41.2	70.5
42.5	71
43.7	71.5
45	72
46.2	72.4
47.5	72.9
48.7	73.4
50	73.9
51.5	74.3
53	74.7
54.5	75.2
56	75.7
58	76.2
60	76.6
61.5	77
63	77.5
65	77.9
67	78.4
69	78.9
71	79.3
73	79.7
75	80.2
77.5	80.6
80	81
82.5	81.4
85	81.9
87.5	82.3
90	82.7
92.5	83
95	83.4
97.5	83.8
100	84.1
103	84.4
106	84.7
109	85
112	85.2
115	85.5
118	85.6
122	85.8
125	85.9
128	86
132	86
136	86
140	85.9
145	85.7
150	85.5
155	85.2
160	84.9
165	84.5
170	84
175	83.5
180	83.1
185	82.7
190	82.6
195	82.8
200	83.2
206	83.7
212	84.4
218	85
224	85.5
230	86
236	86.2
240	86.3
250	86.2
258	85.8
265	85.3
272	84.5
280	83.6
290	82.7
300	82
307	81.7
315	81.7
325	82
335	82.3
345	82.4
355	82.3
365	81.9
375	81.3
387	80.5
400	79.4
412	78.4
425	77.7
437	77.5
450	78
462	78.7
475	79
487	78.6
500	77.4
515	75.9
530	74.6
545	74.1
560	74.2
580	74.9
600	75.8
615	76.9
630	77.9
650	78.4
670	77.8
690	74.6
710	70.6
730	74
750	75
775	75.2
800	74.7
825	74.2
850	74.1
875	74.1
900	73.9
925	73.3
950	72.6
975	72.3
1000	72.4
1030	73
1060	73.7
1090	74.3
1120	75
1150	75.4
1180	74.8
1220	74.6
1250	75.4
1280	75.3
1320	75.4
1360	74.9
1400	73.4
1450	73.3
1500	74
1550	74.6
1600	76.1
1650	77.2
1700	77
1750	74.5
1800	72.3
1850	73.9
1900	76
1950	73.3
2000	66.2
2060	70.2
2120	74.6
2180	72.3
2240	67.2
2300	70.3
2360	71.2
2400	64.3
2500	59.9
2580	59.3
2650	64.1
2720	68
2800	68.2
2900	67.9
3000	67
3070	66.3
3150	67.2
3250	68.1
3350	69.6
3450	68.8
3550	67.7
3650	68.6
3750	68
3870	66.4
4000	69
4120	70.1
4250	67.4
4370	67.1
4500	65.6
4620	64.8
4750	61.4
4870	59.6
5000	63.1
5150	64.6
5300	65.2
5450	65.2
5600	65.4
5800	65.7
6000	56.1
6150	54.9
6300	59
6500	51.2
6700	59.9
6900	59.6
7100	58.8
7300	62.5
7500	64
7750	62.6
8000	64.8
8250	67.5
8500	66.3
8750	60
9000	60.6
9250	59.1
9500	60.7
9750	56.5
10000	50.3
10300	56.3
10600	56.8
10900	60.4
11200	63.6
11500	53.4
11800	55.9
12200	56.2
12500	56.4
12800	56.7
13200	48.4
13600	50.1
14000	52.6
14500	52
15000	54.3
15500	52.1
16000	44.3
16500	44.4
17000	45.9
17500	40
18000	41.5
18500	33.3
19000	36.6
19500	38.7
20000	50.4
20600	50.1
21200	57.1
21800	66.4
22400	52
