Frequency Spectrum for Input Signal

Data Shown:    V2-28 (Community)
Display Parameters:   Frequency: 1000Hz (1/24th Octave)   Mer: 90°  Par: 80°

Freq [Hz]	Signal Level [dBSPL]
22.4	57.9
23	58.5
23.6	59
24	59.8
25	60.5
25.8	61.2
26.5	61.8
27.2	62.4
28	63
29	63.5
30	64
30.7	64.6
31.5	65.2
32.5	65.8
33.5	66.3
34.5	66.8
35.5	67.2
36.5	67.8
37.5	68.4
38.7	68.9
40	69.4
41.2	69.9
42.5	70.4
43.7	71
45	71.5
46.2	72
47.5	72.4
48.7	72.9
50	73.5
51.5	73.9
53	74.4
54.5	74.9
56	75.4
58	75.9
60	76.4
61.5	76.9
63	77.4
65	77.8
67	78.3
69	78.8
71	79.2
73	79.7
75	80.2
77.5	80.6
80	81.1
82.5	81.5
85	82
87.5	82.4
90	82.8
92.5	83.2
95	83.6
97.5	83.9
100	84.3
103	84.6
106	84.9
109	85.2
112	85.5
115	85.7
118	85.9
122	86.1
125	86.2
128	86.3
132	86.3
136	86.3
140	86.2
145	86
150	85.8
155	85.6
160	85.2
165	84.8
170	84.4
175	83.9
180	83.5
185	83.2
190	83.1
195	83.3
200	83.7
206	84.3
212	85
218	85.7
224	86.3
230	86.8
236	87.1
240	87.2
250	87
258	86.7
265	86.1
272	85.3
280	84.3
290	83.3
300	82.5
307	82
315	82
325	82.2
335	82.5
345	82.8
355	82.9
365	82.8
375	82.6
387	82.1
400	81.4
412	80.6
425	79.9
437	79.5
450	79.6
462	79.7
475	79.4
487	78.3
500	76.4
515	74.3
530	73.2
545	73.6
560	74.7
580	75.5
600	76.1
615	76.6
630	77.2
650	78.2
670	79.4
690	79
710	77.1
730	81.1
750	81.3
775	79.4
800	76.1
825	72.8
850	73
875	75.4
900	76.4
925	75.7
950	74
975	71.6
1000	69.2
1030	68.8
1060	69.9
1090	70.4
1120	69.2
1150	65.6
1180	61.2
1220	64.5
1250	68
1280	67.8
1320	67.1
1360	69.2
1400	70.8
1450	73.1
1500	77.3
1550	80.2
1600	80.3
1650	77.1
1700	75.8
1750	77.4
1800	77.9
1850	77.2
1900	76.4
1950	75.4
2000	76.3
2060	77.2
2120	79.5
2180	79.5
2240	75.6
2300	74.2
2360	77.1
2400	73.7
2500	67.5
2580	59.1
2650	69.2
2720	69.3
2800	69.6
2900	72.2
3000	73.2
3070	73.2
3150	71.4
3250	68.7
3350	72
3450	70.9
3550	73.2
3650	74.7
3750	76.2
3870	73.8
4000	73.1
4120	74.3
4250	71.6
4370	72.3
4500	70.2
4620	68.9
4750	69.6
4870	65.2
5000	69.6
5150	70.4
5300	72.3
5450	71.9
5600	75.7
5800	73.5
6000	73.2
6150	73.1
6300	76
6500	74.2
6700	72.2
6900	71.5
7100	69.5
7300	70.8
7500	71.7
7750	73.4
8000	71.5
8250	70.4
8500	70.2
8750	66.2
9000	60.7
9250	74
9500	72.8
9750	72.6
10000	75.8
10300	77.7
10600	76.7
10900	75.1
11200	75.3
11500	70.5
11800	71.1
12200	73.2
12500	74.1
12800	65.9
13200	56.2
13600	59.4
14000	63.7
14500	64.5
15000	61.9
15500	65.3
16000	63.1
16500	58.2
17000	58.2
17500	54.7
18000	52.8
18500	48.2
19000	44.7
19500	49.9
20000	59
20600	57.7
21200	56.7
21800	61.2
22400	46.4
