Frequency Spectrum for Input Signal

Data Shown:    V2-28 (Community)
Display Parameters:   Frequency: 1000Hz (1/24th Octave)   Mer: 270°  Par: 130°

Freq [Hz]	Signal Level [dBSPL]
22.4	59.2
23	59.7
23.6	60.3
24	61.1
25	61.8
25.8	62.5
26.5	63.2
27.2	63.7
28	64.3
29	64.9
30	65.4
30.7	66
31.5	66.6
32.5	67.2
33.5	67.7
34.5	68.2
35.5	68.7
36.5	69.2
37.5	69.8
38.7	70.2
40	70.7
41.2	71.1
42.5	71.6
43.7	72.1
45	72.6
46.2	73.1
47.5	73.5
48.7	74
50	74.4
51.5	74.8
53	75.2
54.5	75.7
56	76.2
58	76.7
60	77.1
61.5	77.6
63	78
65	78.4
67	78.9
69	79.3
71	79.7
73	80.2
75	80.6
77.5	81
80	81.4
82.5	81.9
85	82.3
87.5	82.7
90	83.1
92.5	83.4
95	83.8
97.5	84.2
100	84.5
103	84.8
106	85.1
109	85.4
112	85.7
115	85.9
118	86.1
122	86.2
125	86.3
128	86.4
132	86.4
136	86.4
140	86.4
145	86.2
150	86
155	85.7
160	85.4
165	84.9
170	84.5
175	84
180	83.5
185	83.2
190	83
195	83.1
200	83.5
206	84
212	84.6
218	85.1
224	85.6
230	86
236	86.1
240	86.1
250	85.9
258	85.5
265	84.9
272	84.2
280	83.2
290	82.3
300	81.6
307	81.3
315	81.4
325	81.8
335	82.3
345	82.7
355	82.9
365	82.8
375	82.6
387	82
400	81.2
412	80.1
425	79
437	78.3
450	78.1
462	77.9
475	77.4
487	76.4
500	75.1
515	74
530	74
545	75.2
560	76.7
580	78
600	79
615	80.1
630	81
650	81.4
670	80.8
690	77.6
710	73.4
730	74.5
750	71.3
775	66.2
800	60.8
825	55.5
850	48.3
875	42.8
900	49.5
925	50.2
950	47.5
975	42.4
1000	45.4
1030	50.3
1060	53.8
1090	56.6
1120	58.4
1150	58.2
1180	54.4
1220	50.4
1250	60.7
1280	67.6
1320	72
1360	74.6
1400	74.5
1450	74.6
1500	75.6
1550	76.8
1600	78.1
1650	77.8
1700	76.1
1750	74.8
1800	74.9
1850	73.7
1900	72.1
1950	69.4
2000	67.2
2060	67.5
2120	67.3
2180	68.2
2240	68.4
2300	66.2
2360	67.3
2400	67
2500	66.5
2580	63.6
2650	63.1
2720	64.3
2800	61.7
2900	59.7
3000	62
3070	63
3150	60.3
3250	58.4
3350	47.8
3450	54.2
3550	57.1
3650	62.4
3750	62.2
3870	56.8
4000	52.8
4120	54.7
4250	62.2
4370	61.6
4500	60.6
4620	54.1
4750	55.7
4870	56.8
5000	49.9
5150	58.2
5300	55.9
5450	57.9
5600	60.8
5800	67.6
6000	64.9
6150	62.5
6300	65.9
6500	65.1
6700	57.8
6900	60.9
7100	56.7
7300	60.8
7500	62.8
7750	58
8000	61.6
8250	62
8500	56.7
8750	60
9000	61.6
9250	60.3
9500	60.2
9750	55.9
10000	57.2
10300	56.6
10600	55.9
10900	53.1
11200	53.7
11500	52.6
11800	58.6
12200	53.9
12500	53.7
12800	50.2
13200	45.8
13600	44.8
14000	36.7
14500	43.6
15000	43.2
15500	45.5
16000	43
16500	40.5
17000	36.6
17500	37.2
18000	32.9
18500	31.2
19000	32.8
19500	36.9
20000	46.8
20600	49.9
21200	50.6
21800	65
22400	53.2
