Frequency Spectrum for Input Signal

Data Shown:    V2-3294 (Community)
Display Parameters:   Frequency: 1000Hz (1/24th Octave)   Mer: 90°  Par: 40°

Freq [Hz]	Signal Level [dBSPL]
22.4	69.8
23	70.2
23.6	70.6
24	71
25	71.4
25.8	71.8
26.5	72.1
27.2	72.5
28	72.9
29	73.3
30	73.7
30.7	74.1
31.5	74.5
32.5	74.9
33.5	75.3
34.5	75.7
35.5	76.1
36.5	76.4
37.5	76.8
38.7	77.2
40	77.5
41.2	77.9
42.5	78.3
43.7	78.6
45	79
46.2	79.4
47.5	79.8
48.7	80.2
50	80.6
51.5	81
53	81.4
54.5	81.8
56	82.2
58	82.6
60	83
61.5	83.4
63	83.8
65	84.2
67	84.6
69	85.1
71	85.5
73	86
75	86.5
77.5	87
80	87.5
82.5	87.9
85	88.5
87.5	89
90	89.5
92.5	90
95	90.5
97.5	91
100	91.4
103	91.8
106	92.2
109	92.5
112	92.7
115	93
118	93.1
122	93.1
125	93.1
128	93.1
132	92.9
136	92.6
140	92.2
145	91.8
150	91.3
155	90.7
160	90.1
165	89.4
170	88.9
175	88.5
180	88.3
185	88.5
190	88.9
195	89.7
200	90.6
206	91.6
212	92.7
218	94.1
224	95.2
230	95.4
236	95.3
240	94.6
250	93.9
258	93
265	92.1
272	91
280	89.9
290	89.9
300	90
307	90.3
315	91.4
325	91.6
335	91.8
345	91.9
355	91.6
365	91
375	90.5
387	91.2
400	90.7
412	91.3
425	91.8
437	93
450	92.7
462	92.9
475	93.2
487	91.8
500	90.6
515	87.4
530	85.4
545	82.3
560	85.3
580	86
600	85.2
615	84.1
630	81.8
650	83.9
670	83.7
690	88.1
710	90.1
730	88.4
750	87.6
775	85.6
800	83.9
825	88.3
850	83.8
875	81.1
900	82.4
925	83.8
950	82.9
975	83.2
1000	83
1030	82.6
1060	81.7
1090	82
1120	82.8
1150	83.2
1180	83.6
1220	83.6
1250	82
1280	83.1
1320	80.5
1360	81.5
1400	83.2
1450	85.4
1500	85.8
1550	87
1600	85.7
1650	86.5
1700	84.5
1750	82.9
1800	82.3
1850	80.2
1900	81.1
1950	78.6
2000	80.4
2060	78.3
2120	80.8
2180	77.7
2240	78.8
2300	81.5
2360	84.1
2400	84.7
2500	84.3
2580	84.5
2650	85.7
2720	87.7
2800	89.1
2900	87
3000	85
3070	82.3
3150	83.9
3250	85.3
3350	77.1
3450	90.2
3550	90.5
3650	88.5
3750	87.1
3870	87.5
4000	86
4120	87.1
4250	86.3
4370	82
4500	82
4620	81.2
4750	82.1
4870	80.8
5000	81.6
5150	84.1
5300	82
5450	78.2
5600	76.5
5800	85.6
6000	81.7
6150	82.8
6300	81.9
6500	80.6
6700	79.1
6900	80.6
7100	79.4
7300	80.4
7500	83.3
7750	84.9
8000	85.7
8250	84.2
8500	83.7
8750	84.7
9000	83.8
9250	85
9500	78.7
9750	79.6
10000	79.6
10300	81.4
10600	79.9
10900	75.5
11200	85
11500	78.1
11800	73.3
12200	69.9
12500	76.4
12800	79.8
13200	78
13600	73.7
14000	69.3
14500	63.2
15000	66.4
15500	77.7
16000	77.6
16500	78
17000	65.3
17500	72.4
18000	72.3
18500	70.6
19000	71.2
19500	65.5
20000	65.9
20600	61.2
21200	66.4
21800	65.7
22400	63.6
