Frequency Spectrum for Input Signal

Data Shown:    V2-3294 (Community)
Display Parameters:   Frequency: 1000Hz (1/24th Octave)   Mer: 90°  Par: 20°

Freq [Hz]	Signal Level [dBSPL]
22.4	70.7
23	71.1
23.6	71.5
24	71.9
25	72.3
25.8	72.7
26.5	73
27.2	73.4
28	73.8
29	74.2
30	74.6
30.7	75
31.5	75.4
32.5	75.8
33.5	76.2
34.5	76.6
35.5	77
36.5	77.3
37.5	77.7
38.7	78.1
40	78.4
41.2	78.8
42.5	79.2
43.7	79.6
45	80
46.2	80.3
47.5	80.7
48.7	81.1
50	81.6
51.5	82
53	82.4
54.5	82.8
56	83.2
58	83.6
60	84
61.5	84.4
63	84.9
65	85.3
67	85.7
69	86.1
71	86.5
73	87
75	87.6
77.5	88
80	88.6
82.5	89
85	89.6
87.5	90.1
90	90.7
92.5	91.2
95	91.7
97.5	92.1
100	92.6
103	93
106	93.4
109	93.7
112	94
115	94.2
118	94.4
122	94.4
125	94.5
128	94.5
132	94.3
136	94
140	93.7
145	93.3
150	92.9
155	92.4
160	91.8
165	91.2
170	90.7
175	90.3
180	90
185	90.1
190	90.4
195	90.9
200	91.6
206	92.5
212	93.4
218	94.7
224	95.7
230	95.9
236	95.7
240	95.1
250	94.3
258	93.6
265	92.8
272	92
280	91.4
290	91.4
300	91.7
307	92.2
315	93
325	93.4
335	93.6
345	93.7
355	93.6
365	93.6
375	93.8
387	94
400	94.3
412	94.7
425	95
437	95.7
450	95.8
462	96.2
475	96.4
487	95.7
500	94.5
515	92.2
530	90
545	89.5
560	90.9
580	91.7
600	91.8
615	92
630	91.4
650	92.4
670	92.2
690	92.7
710	93.1
730	92.8
750	91.8
775	91.1
800	90.3
825	92.2
850	90.5
875	88.9
900	88.7
925	88.5
950	88.1
975	87.8
1000	87.6
1030	86.6
1060	86.2
1090	86.9
1120	87.2
1150	87
1180	87.9
1220	88.6
1250	88.2
1280	89
1320	88.8
1360	89.1
1400	89.7
1450	90.3
1500	90.8
1550	91.9
1600	91.4
1650	91.2
1700	91
1750	90.6
1800	89.7
1850	89.3
1900	89.3
1950	88.7
2000	88.6
2060	89.1
2120	88.6
2180	89.2
2240	88.6
2300	87.9
2360	84.2
2400	79.8
2500	78.7
2580	78.8
2650	74.5
2720	71.2
2800	85.9
2900	89.9
3000	89.7
3070	89.5
3150	86.8
3250	86.6
3350	86.7
3450	89.3
3550	91
3650	91
3750	90
3870	89.5
4000	89.1
4120	90.2
4250	90.5
4370	89.6
4500	88.3
4620	89
4750	89.6
4870	90.4
5000	91.7
5150	93.1
5300	91.5
5450	90.2
5600	90.4
5800	95.7
6000	94.4
6150	92.7
6300	92.6
6500	89.7
6700	87.9
6900	89
7100	87.7
7300	87.2
7500	85.6
7750	84.8
8000	89
8250	88.9
8500	89.3
8750	87
9000	86.3
9250	88
9500	85.8
9750	85.8
10000	86.4
10300	90.2
10600	93.2
10900	90.8
11200	92
11500	90.1
11800	87.2
12200	86.3
12500	81.9
12800	87.5
13200	87
13600	83.3
14000	74.8
14500	64.6
15000	67.4
15500	81.4
16000	85
16500	85.7
17000	75.1
17500	76
18000	78.5
18500	77.9
19000	76.7
19500	70.5
20000	68
20600	61.1
21200	67.2
21800	67.5
22400	71.7
