Frequency Spectrum for Input Signal

Data Shown:    V2-3294 (Community)
Display Parameters:   Frequency: 1000Hz (1/24th Octave)   Mer: 0°  Par: 180°

Freq [Hz]	Signal Level [dBSPL]
22.4	73.3
23	73.7
23.6	74.2
24	74.6
25	75
25.8	75.4
26.5	75.8
27.2	76.2
28	76.6
29	77
30	77.4
30.7	77.8
31.5	78.2
32.5	78.6
33.5	79
34.5	79.5
35.5	79.9
36.5	80.1
37.5	80.4
38.7	80.7
40	81
41.2	81.3
42.5	81.7
43.7	82
45	82.4
46.2	82.7
47.5	83
48.7	83.3
50	83.6
51.5	83.9
53	84.2
54.5	84.5
56	84.9
58	85.2
60	85.5
61.5	85.8
63	86
65	86.3
67	86.6
69	87
71	87.3
73	87.6
75	88
77.5	88.3
80	88.7
82.5	89
85	89.4
87.5	89.8
90	90.2
92.5	90.6
95	90.9
97.5	91.2
100	91.5
103	91.8
106	92.1
109	92.3
112	92.4
115	92.5
118	92.6
122	92.6
125	92.5
128	92.4
132	92.2
136	92
140	91.6
145	91.3
150	90.9
155	90.4
160	89.9
165	89.3
170	88.7
175	88.1
180	87.4
185	86.8
190	86.2
195	85.8
200	85.6
206	85.8
212	86.2
218	87.6
224	88.8
230	89.5
236	89.9
240	89.9
250	89.8
258	89.9
265	89.7
272	89.3
280	88.3
290	88.7
300	86.7
307	87.2
315	86.6
325	86.2
335	86.4
345	86.5
355	86.8
365	87.4
375	88.6
387	88.9
400	89.5
412	91
425	90.8
437	89.5
450	88.2
462	86.6
475	86.5
487	86.7
500	85.3
515	85.5
530	79.9
545	85.8
560	85.3
580	85
600	85.6
615	84.3
630	81.6
650	82.8
670	83.5
690	84.5
710	85.1
730	83.7
750	83
775	77
800	74
825	69.5
850	71.5
875	79.6
900	66.5
925	76.2
950	79.1
975	71.1
1000	63.1
1030	67.8
1060	61.2
1090	74.6
1120	62.4
1150	71.3
1180	72.8
1220	72.7
1250	71.4
1280	63.6
1320	74.3
1360	72
1400	71.7
1450	77
1500	73.6
1550	76.7
1600	78.7
1650	76.1
1700	71.3
1750	67.6
1800	70.3
1850	72.4
1900	74.2
1950	72.5
2000	69.6
2060	63.4
2120	70.9
2180	69.9
2240	67.6
2300	73.7
2360	68.8
2400	70.4
2500	70.9
2580	70.6
2650	71.6
2720	74.4
2800	74
2900	73.8
3000	70.6
3070	65.3
3150	62.7
3250	57.5
3350	71.1
3450	75
3550	76
3650	69.5
3750	66.4
3870	69.2
4000	67.2
4120	61.6
4250	72
4370	72.3
4500	65.5
4620	66
4750	56.4
4870	63.3
5000	72.1
5150	72.5
5300	69.9
5450	68.2
5600	68.2
5800	67.9
6000	71.4
6150	66.2
6300	71.3
6500	69.6
6700	63.4
6900	59.3
7100	60.6
7300	65
7500	64.7
7750	68.5
8000	63.8
8250	68.2
8500	70.3
8750	59.3
9000	62.8
9250	65.6
9500	63
9750	58.5
10000	60.9
10300	60.3
10600	67.7
10900	67.4
11200	68.8
11500	55.2
11800	60.7
12200	58.6
12500	58.7
12800	54.4
13200	50.8
13600	49.3
14000	47
14500	52.6
15000	53.6
15500	49.6
16000	57.3
16500	54.5
17000	45.9
17500	50.2
18000	50.2
18500	48.6
19000	40.8
19500	43.9
20000	43.6
20600	50.5
21200	60.5
21800	64.4
22400	67.2
