Frequency Spectrum for Input Signal

Data Shown:    V2-3294 (Community)
Display Parameters:   Frequency: 1000Hz (1/24th Octave)   Mer: 270°  Par: 50°

Freq [Hz]	Signal Level [dBSPL]
22.4	73.9
23	74.3
23.6	74.8
24	75.2
25	75.7
25.8	76.1
26.5	76.5
27.2	76.9
28	77.3
29	77.7
30	78.1
30.7	78.6
31.5	79
32.5	79.4
33.5	79.8
34.5	80.2
35.5	80.6
36.5	81
37.5	81.3
38.7	81.7
40	82
41.2	82.4
42.5	82.7
43.7	83.1
45	83.5
46.2	83.8
47.5	84.2
48.7	84.5
50	84.9
51.5	85.2
53	85.6
54.5	86
56	86.3
58	86.7
60	87
61.5	87.4
63	87.7
65	88.1
67	88.4
69	88.8
71	89.2
73	89.6
75	90
77.5	90.5
80	90.9
82.5	91.3
85	91.8
87.5	92.3
90	92.8
92.5	93.2
95	93.7
97.5	94.1
100	94.5
103	94.9
106	95.2
109	95.5
112	95.8
115	96
118	96.2
122	96.2
125	96.3
128	96.3
132	96.2
136	96
140	95.8
145	95.5
150	95.1
155	94.7
160	94.2
165	93.7
170	93
175	92.3
180	91.6
185	90.9
190	90.1
195	89.5
200	88.9
206	88.9
212	89.3
218	90.6
224	92
230	92.9
236	93.3
240	93.4
250	93.2
258	93
265	92.5
272	91.9
280	91.1
290	90
300	89.4
307	89.7
315	90.5
325	91.7
335	92.4
345	93
355	93.4
365	93.3
375	92.8
387	92.9
400	92.7
412	91
425	90.7
437	89.9
450	90.6
462	91.2
475	91.9
487	91.8
500	92.2
515	91.4
530	88.4
545	85.1
560	87.9
580	89.7
600	90.8
615	90.1
630	89.7
650	86.2
670	83.6
690	78.9
710	74.1
730	71.2
750	79
775	80.2
800	84.4
825	84.4
850	89.2
875	87.1
900	87.6
925	88.1
950	88
975	90
1000	88.2
1030	89.6
1060	89.2
1090	87.8
1120	87.1
1150	88
1180	87.3
1220	86
1250	84.3
1280	83.5
1320	83.6
1360	84.1
1400	83
1450	86.6
1500	86.9
1550	86
1600	84.3
1650	87.4
1700	86.9
1750	86
1800	84.2
1850	83.5
1900	81.6
1950	82.2
2000	80
2060	77
2120	81.8
2180	83.5
2240	84.4
2300	83.2
2360	83
2400	83.2
2500	83.2
2580	83.5
2650	84.2
2720	85.5
2800	83.5
2900	84.3
3000	82.9
3070	81.7
3150	79.6
3250	79.4
3350	82.9
3450	74.5
3550	75.7
3650	80
3750	81
3870	79.8
4000	79.9
4120	83.1
4250	83.4
4370	82.3
4500	82
4620	83
4750	83
4870	83
5000	84.2
5150	83.4
5300	82.6
5450	84
5600	82.5
5800	83.3
6000	83.6
6150	80.5
6300	81
6500	81.5
6700	80.2
6900	77.9
7100	74.4
7300	76.5
7500	77.4
7750	73.6
8000	80.3
8250	83.9
8500	85.2
8750	80.1
9000	80.9
9250	80.8
9500	79.8
9750	77.6
10000	76.4
10300	74.5
10600	79.9
10900	75.5
11200	77.5
11500	73.7
11800	67
12200	68.1
12500	73
12800	80
13200	78
13600	71.2
14000	62.2
14500	67.5
15000	75.3
15500	78.7
16000	77.5
16500	73.4
17000	63.8
17500	69.7
18000	70.2
18500	67.4
19000	60.5
19500	63.2
20000	65.7
20600	61.9
21200	60.8
21800	67.6
22400	68.5
