Frequency Spectrum for Input Signal

Data Shown:    V2-3294 (Community)
Display Parameters:   Frequency: 1000Hz (1/24th Octave)   Mer: 270°  Par: 160°

Freq [Hz]	Signal Level [dBSPL]
22.4	75.1
23	75.5
23.6	75.9
24	76.3
25	76.6
25.8	77
26.5	77.4
27.2	77.8
28	78.2
29	78.5
30	78.9
30.7	79.3
31.5	79.7
32.5	80.1
33.5	80.5
34.5	80.9
35.5	81.3
36.5	81.6
37.5	81.8
38.7	82.1
40	82.4
41.2	82.7
42.5	83.1
43.7	83.4
45	83.7
46.2	84.1
47.5	84.4
48.7	84.7
50	85
51.5	85.2
53	85.5
54.5	85.9
56	86.2
58	86.5
60	86.8
61.5	87.1
63	87.3
65	87.6
67	87.9
69	88.2
71	88.5
73	88.8
75	89.2
77.5	89.5
80	89.8
82.5	90.2
85	90.6
87.5	90.9
90	91.3
92.5	91.6
95	92
97.5	92.3
100	92.5
103	92.8
106	93.1
109	93.2
112	93.4
115	93.5
118	93.6
122	93.5
125	93.5
128	93.4
132	93.2
136	92.9
140	92.6
145	92.2
150	91.8
155	91.2
160	90.6
165	90
170	89.2
175	88.3
180	87.4
185	86.4
190	85.2
195	84.1
200	82.9
206	82.4
212	82.4
218	84.2
224	86.1
230	87.4
236	88.2
240	88.4
250	88.5
258	88.6
265	88.4
272	87.8
280	86.6
290	85.9
300	84.6
307	83
315	83.1
325	83.4
335	83.8
345	85
355	86.4
365	88.1
375	89.9
387	88.7
400	88
412	87.6
425	87.5
437	85.9
450	85.4
462	83.8
475	84.6
487	83.8
500	87.4
515	84.2
530	84.2
545	82.5
560	83
580	80.7
600	83.6
615	82.2
630	86.6
650	85.9
670	85.4
690	84.8
710	86.1
730	85.4
750	83
775	82.9
800	81.6
825	79.6
850	77.1
875	71.4
900	78.9
925	79.3
950	73.8
975	72.4
1000	69.2
1030	67.6
1060	72
1090	66.6
1120	71.4
1150	72.5
1180	75.3
1220	73
1250	72.2
1280	61.1
1320	69.5
1360	67
1400	61.9
1450	70.8
1500	73.9
1550	76.1
1600	69.9
1650	77.9
1700	79.6
1750	70
1800	74.8
1850	74.6
1900	75.4
1950	75.4
2000	76.7
2060	75.6
2120	73
2180	72.6
2240	72.2
2300	69.9
2360	69.1
2400	72.1
2500	72.4
2580	71.7
2650	72.8
2720	74.3
2800	73.3
2900	75
3000	73.4
3070	74.2
3150	72.2
3250	63.5
3350	75.5
3450	65.5
3550	74.2
3650	74.7
3750	74.5
3870	76.2
4000	68.1
4120	66.1
4250	69.5
4370	65.8
4500	67.1
4620	61.2
4750	63.1
4870	63.3
5000	66.6
5150	66
5300	62.5
5450	57.7
5600	67.1
5800	77.5
6000	74.6
6150	70.1
6300	69.2
6500	55.7
6700	62.2
6900	58.3
7100	65
7300	61.5
7500	57.5
7750	63.8
8000	66.3
8250	61.6
8500	64.6
8750	66.5
9000	61.7
9250	57.3
9500	62.5
9750	60.6
10000	61.4
10300	58.9
10600	61.5
10900	61.8
11200	65.8
11500	54.1
11800	53.4
12200	53.5
12500	52
12800	52.4
13200	57
13600	51.8
14000	50.4
14500	47.1
15000	46
15500	54.9
16000	52.7
16500	54.6
17000	44.3
17500	47.8
18000	44.6
18500	42.3
19000	48
19500	43
20000	49.1
20600	50.3
21200	58.2
21800	62.6
22400	65
