"SPL Horizontal"
"On-Axis"		"10°"		"-10°"		"20°"		"-20°"		"30°"		"-30°"		"40°"		"-40°"		"50°"		"-50°"		"60°"		"-60°"		"70°"		"-70°"		"80°"		"-80°"		"90°"		"-90°"		"100°"		"-100°"		"110°"		"-110°"		"120°"		"-120°"		"130°"		"-130°"		"140°"		"-140°"		"150°"		"-150°"		"160°"		"-160°"		"170°"		"-170°"		"180°"
"Frequency / Hz"	"Sound Pressure Level / dB (re 20 µPa/V)  [2.83  V @ 1. m]"	"Frequency / Hz"	"Sound Pressure Level / dB (re 20 µPa/V)  [2.83  V @ 1. m]"	"Frequency / Hz"	"Sound Pressure Level / dB (re 20 µPa/V)  [2.83  V @ 1. m]"	"Frequency / Hz"	"Sound Pressure Level / dB (re 20 µPa/V)  [2.83  V @ 1. m]"	"Frequency / Hz"	"Sound Pressure Level / dB (re 20 µPa/V)  [2.83  V @ 1. m]"	"Frequency / Hz"	"Sound Pressure Level / dB (re 20 µPa/V)  [2.83  V @ 1. m]"	"Frequency / Hz"	"Sound Pressure Level / dB (re 20 µPa/V)  [2.83  V @ 1. m]"	"Frequency / Hz"	"Sound Pressure Level / dB (re 20 µPa/V)  [2.83  V @ 1. m]"	"Frequency / Hz"	"Sound Pressure Level / dB (re 20 µPa/V)  [2.83  V @ 1. m]"	"Frequency / Hz"	"Sound Pressure Level / dB (re 20 µPa/V)  [2.83  V @ 1. m]"	"Frequency / Hz"	"Sound Pressure Level / dB (re 20 µPa/V)  [2.83  V @ 1. m]"	"Frequency / Hz"	"Sound Pressure Level / dB (re 20 µPa/V)  [2.83  V @ 1. m]"	"Frequency / Hz"	"Sound Pressure Level / dB (re 20 µPa/V)  [2.83  V @ 1. m]"	"Frequency / Hz"	"Sound Pressure Level / dB (re 20 µPa/V)  [2.83  V @ 1. m]"	"Frequency / Hz"	"Sound Pressure Level / dB (re 20 µPa/V)  [2.83  V @ 1. m]"	"Frequency / Hz"	"Sound Pressure Level / dB (re 20 µPa/V)  [2.83  V @ 1. m]"	"Frequency / Hz"	"Sound Pressure Level / dB (re 20 µPa/V)  [2.83  V @ 1. m]"	"Frequency / Hz"	"Sound Pressure Level / dB (re 20 µPa/V)  [2.83  V @ 1. m]"	"Frequency / Hz"	"Sound Pressure Level / dB (re 20 µPa/V)  [2.83  V @ 1. m]"	"Frequency / Hz"	"Sound Pressure Level / dB (re 20 µPa/V)  [2.83  V @ 1. m]"	"Frequency / Hz"	"Sound Pressure Level / dB (re 20 µPa/V)  [2.83  V @ 1. m]"	"Frequency / Hz"	"Sound Pressure Level / dB (re 20 µPa/V)  [2.83  V @ 1. m]"	"Frequency / Hz"	"Sound Pressure Level / dB (re 20 µPa/V)  [2.83  V @ 1. m]"	"Frequency / Hz"	"Sound Pressure Level / dB (re 20 µPa/V)  [2.83  V @ 1. m]"	"Frequency / Hz"	"Sound Pressure Level / dB (re 20 µPa/V)  [2.83  V @ 1. m]"	"Frequency / Hz"	"Sound Pressure Level / dB (re 20 µPa/V)  [2.83  V @ 1. m]"	"Frequency / Hz"	"Sound Pressure Level / dB (re 20 µPa/V)  [2.83  V @ 1. m]"	"Frequency / Hz"	"Sound Pressure Level / dB (re 20 µPa/V)  [2.83  V @ 1. m]"	"Frequency / Hz"	"Sound Pressure Level / dB (re 20 µPa/V)  [2.83  V @ 1. m]"	"Frequency / Hz"	"Sound Pressure Level / dB (re 20 µPa/V)  [2.83  V @ 1. m]"	"Frequency / Hz"	"Sound Pressure Level / dB (re 20 µPa/V)  [2.83  V @ 1. m]"	"Frequency / Hz"	"Sound Pressure Level / dB (re 20 µPa/V)  [2.83  V @ 1. m]"	"Frequency / Hz"	"Sound Pressure Level / dB (re 20 µPa/V)  [2.83  V @ 1. m]"	"Frequency / Hz"	"Sound Pressure Level / dB (re 20 µPa/V)  [2.83  V @ 1. m]"	"Frequency / Hz"	"Sound Pressure Level / dB (re 20 µPa/V)  [2.83  V @ 1. m]"	"Frequency / Hz"	"Sound Pressure Level / dB (re 20 µPa/V)  [2.83  V @ 1. m]"
20.5078	52.363	20.5078	52.3065	20.5078	52.2179	20.5078	52.0416	20.5078	51.867	20.5078	51.5497	20.5078	51.2959	20.5078	50.7996	20.5078	50.4837	20.5078	49.7504	20.5078	49.4119	20.5078	48.367	20.5078	48.0993	20.5078	46.6973	20.5078	46.7123	20.5078	45.1518	20.5078	45.7905	20.5078	44.8588	20.5078	46.1187	20.5078	46.3936	20.5078	47.6629	20.5078	48.6682	20.5078	49.6205	20.5078	50.8093	20.5078	51.4649	20.5078	52.5886	20.5078	53.0312	20.5078	53.9961	20.5078	54.2921	20.5078	55.0613	20.5078	55.2545	20.5078	55.8114	20.5078	55.9284	20.5078	56.265	20.5078	56.3203	20.5078	56.4329
21.9727	53.4964	21.9727	53.4244	21.9727	53.3746	21.9727	53.1628	21.9727	53.0506	21.9727	52.7127	21.9727	52.5129	21.9727	52.0782	21.9727	51.7531	21.9727	51.282	21.9727	50.786	21.9727	50.4033	21.9727	49.7047	21.9727	49.647	21.9727	48.798	21.9727	49.3799	21.9727	48.6032	21.9727	49.9163	21.9727	49.4673	21.9727	51.156	21.9727	51.0553	21.9727	52.7046	21.9727	52.8182	21.9727	54.2439	21.9727	54.4501	21.9727	55.6187	21.9727	55.8442	21.9727	56.7698	21.9727	56.9751	21.9727	57.6774	21.9727	57.8419	21.9727	58.3355	21.9727	58.4489	21.9727	58.7424	21.9727	58.8	21.9727	58.8975
23.4375	54.5887	23.4375	54.5264	23.4375	54.4494	23.4375	54.2569	23.4375	54.1098	23.4375	53.7701	23.4375	53.5707	23.4375	53.056	23.4375	52.8436	23.4375	52.1217	23.4375	51.9787	23.4375	51.0428	23.4375	51.1235	23.4375	50.0805	23.4375	50.596	23.4375	49.7792	23.4375	50.7956	23.4375	50.5771	23.4375	51.8149	23.4375	52.1883	23.4375	53.316	23.4375	54.019	23.4375	54.9148	23.4375	55.7244	23.4375	56.3975	23.4375	57.1862	23.4375	57.6787	23.4375	58.3786	23.4375	58.7304	23.4375	59.3033	23.4375	59.5443	23.4375	59.9674	23.4375	60.1179	23.4375	60.377	23.4375	60.4493	23.4375	60.5365
24.9023	56.3867	24.9023	56.3299	24.9023	56.2861	24.9023	56.1129	24.9023	56.0352	24.9023	55.7378	24.9023	55.6494	24.9023	55.2194	24.9023	55.1624	24.9023	54.6027	24.9023	54.6447	24.9023	53.9953	24.9023	54.2264	24.9023	53.5994	24.9023	54.094	24.9023	53.6713	24.9023	54.4118	24.9023	54.3398	24.9023	55.1943	24.9023	55.4717	24.9023	56.2909	24.9023	56.8034	24.9023	57.5046	24.9023	58.1236	24.9023	58.6866	24.9023	59.3154	24.9023	59.7499	24.9023	60.3245	24.9023	60.6482	24.9023	61.1278	24.9023	61.3569	24.9023	61.7154	24.9023	61.8618	24.9023	62.0829	24.9023	62.1543	24.9023	62.2289
26.3672	57.9316	26.3672	57.8293	26.3672	57.9145	26.3672	57.6106	26.3672	57.7822	26.3672	57.2875	26.3672	57.5468	26.3672	56.8888	26.3672	57.2348	26.3672	56.472	26.3672	56.8956	26.3672	56.1368	26.3672	56.6126	26.3672	56.0221	26.3672	56.5017	26.3672	56.2566	26.3672	56.6791	26.3672	56.876	26.3672	57.197	26.3672	57.7919	26.3672	58.0044	26.3672	58.8541	26.3672	58.9795	26.3672	59.9271	26.3672	59.9945	26.3672	60.9189	26.3672	60.9524	26.3672	61.7746	26.3672	61.7902	26.3672	62.4627	26.3672	62.4697	26.3672	62.9649	26.3672	62.9679	26.3672	63.2703	26.3672	63.2715	26.3672	63.3731
27.832	60.0664	27.832	60.0256	27.832	59.9902	27.832	59.8711	27.832	59.7992	27.832	59.6126	27.832	59.5027	27.832	59.2711	27.832	59.123	27.832	58.8877	27.832	58.7053	27.832	58.5346	27.832	58.3299	27.832	58.3192	27.832	58.116	27.832	58.3628	27.832	58.1925	27.832	58.7412	27.832	58.6288	27.832	59.4308	27.832	59.3819	27.832	60.3223	27.832	60.3247	27.832	61.2842	27.832	61.3193	27.832	62.2103	27.832	62.2613	27.832	63.0301	27.832	63.0841	27.832	63.7008	27.832	63.7487	27.832	64.1973	27.832	64.2326	27.832	64.5045	27.832	64.5232	27.832	64.6142
29.2969	61.0437	29.2969	61.0002	29.2969	60.9873	29.2969	60.8596	29.2969	60.8356	29.2969	60.6337	29.2969	60.6031	29.2969	60.3475	29.2969	60.3179	29.2969	60.0462	29.2969	60.0296	29.2969	59.802	29.2969	59.8135	29.2969	59.7113	29.2969	59.7651	29.2969	59.8676	29.2969	59.9698	29.2969	60.3149	29.2969	60.4586	29.2969	61.0169	29.2969	61.1858	29.2969	61.8775	29.2969	62.0537	29.2969	62.7883	29.2969	62.9577	29.2969	63.6614	29.2969	63.8142	29.2969	64.4359	29.2969	64.5654	29.2969	65.0729	29.2969	65.1741	29.2969	65.5478	29.2969	65.6173	29.2969	65.8457	29.2969	65.881	29.2969	65.9578
30.7617	62.792	30.7617	62.7555	30.7617	62.7465	30.7617	62.6391	30.7617	62.6235	30.7617	62.453	30.7617	62.4359	30.7617	62.2186	30.7617	62.2081	30.7617	61.9723	30.7617	61.9796	30.7617	61.7704	30.7617	61.8082	30.7617	61.6859	30.7617	61.7651	30.7617	61.7923	30.7617	61.9166	30.7617	62.1325	30.7617	62.2954	30.7617	62.6941	30.7617	62.8807	30.7617	63.4134	30.7617	63.6065	30.7617	64.2039	30.7617	64.3891	30.7617	64.9851	30.7617	65.1519	30.7617	65.6943	30.7617	65.8354	30.7617	66.2876	30.7617	66.3978	30.7617	66.7354	30.7617	66.811	30.7617	67.0191	30.7617	67.0575	30.7617	67.1277
32.2266	63.7352	32.2266	63.7112	32.2266	63.6855	32.2266	63.6164	32.2266	63.5662	32.2266	63.4612	32.2266	63.3894	32.2266	63.266	32.2266	63.1778	32.2266	63.0643	32.2266	62.968	32.2266	62.905	32.2266	62.8129	32.2266	62.8498	32.2266	62.7771	32.2266	62.9598	32.2266	62.9211	32.2266	63.2726	32.2266	63.2759	32.2266	63.7816	32.2266	63.8248	32.2266	64.4367	32.2266	64.509	32.2266	65.1642	32.2266	65.2513	32.2266	65.8906	32.2266	65.979	32.2266	66.5553	32.2266	66.6348	32.2266	67.1136	32.2266	67.1775	32.2266	67.535	32.2266	67.5793	32.2266	67.7997	32.2266	67.8223	32.2266	67.8968
33.6914	65.2126	33.6914	65.1896	33.6914	65.1733	33.6914	65.1064	33.6914	65.0762	33.6914	64.9724	33.6914	64.933	33.6914	64.8052	33.6914	64.7648	33.6914	64.6342	33.6914	64.6041	33.6914	64.5011	33.6914	64.4958	33.6914	64.4578	33.6914	64.4915	33.6914	64.556	33.6914	64.6377	33.6914	64.8295	33.6914	64.9574	33.6914	65.2768	33.6914	65.4378	33.6914	65.8598	33.6914	66.0339	33.6914	66.5167	33.6914	66.6844	33.6914	67.1812	33.6914	67.3284	33.6914	67.7959	33.6914	67.9146	33.6914	68.3164	33.6914	68.4041	33.6914	68.7116	33.6914	68.7688	33.6914	68.9615	33.6914	68.9895	33.6914	69.0551
35.1562	66.2271	35.1562	66.2034	35.1562	66.1903	35.1562	66.1212	35.1562	66.0975	35.1562	65.9889	35.1562	65.9597	35.1562	65.8229	35.1562	65.7966	35.1562	65.6502	35.1562	65.6383	35.1562	65.5098	35.1562	65.5255	35.1562	65.4504	35.1562	65.506	35.1562	65.5218	35.1562	65.6235	35.1562	65.7583	35.1562	65.9027	35.1562	66.1628	35.1562	66.3367	35.1562	66.7026	35.1562	66.8878	35.1562	67.3207	35.1562	67.5	35.1562	67.9537	35.1562	68.1142	35.1562	68.545	35.1562	68.6785	35.1562	69.0499	35.1562	69.1522	35.1562	69.4364	35.1562	69.5053	35.1562	69.6833	35.1562	69.7179	35.1562	69.7785
36.6211	67.1346	36.6211	67.1192	36.6211	67.1031	36.6211	67.0586	36.6211	67.0289	36.6211	66.9617	36.6211	66.9235	36.6211	66.845	36.6211	66.806	36.6211	66.7341	36.6211	66.7042	36.6211	66.6638	36.6211	66.6539	36.6211	66.6746	36.6211	66.6944	36.6211	66.8045	36.6211	66.8589	36.6211	67.0763	36.6211	67.1634	36.6211	67.4872	36.6211	67.5983	36.6211	68.0076	36.6211	68.1301	36.6211	68.5894	36.6211	68.711	36.6211	69.1794	36.6211	69.2901	36.6211	69.7286	36.6211	69.8219	36.6211	70.1972	36.6211	70.2693	36.6211	70.5556	36.6211	70.6044	36.6211	70.7834	36.6211	70.808	36.6211	70.8688
38.0859	68.6087	38.0859	68.5949	38.0859	68.5867	38.0859	68.5472	38.0859	68.5326	38.0859	68.4728	38.0859	68.4553	38.0859	68.3849	38.0859	68.3703	38.0859	68.3036	38.0859	68.2993	38.0859	68.2552	38.0859	68.2697	38.0859	68.2699	38.0859	68.3113	38.0859	68.3768	38.0859	68.4498	38.0859	68.5952	38.0859	68.6992	38.0859	68.9271	38.0859	69.0555	38.0859	69.3541	38.0859	69.4961	38.0859	69.8416	38.0859	69.9848	38.0859	70.3467	38.0859	70.48	38.0859	70.8261	38.0859	70.941	38.0859	71.2424	38.0859	71.3328	38.0859	71.5656	38.0859	71.6277	38.0859	71.7744	38.0859	71.806	38.0859	71.856
39.5508	69.6414	39.5508	69.627	39.5508	69.6223	39.5508	69.5808	39.5508	69.5729	39.5508	69.5095	39.5508	69.5011	39.5508	69.4251	39.5508	69.4205	39.5508	69.3456	39.5508	69.3504	39.5508	69.2946	39.5508	69.3152	39.5508	69.2996	39.5508	69.3416	39.5508	69.3874	39.5508	69.454	39.5508	69.5767	39.5508	69.6671	39.5508	69.8715	39.5508	69.9807	39.5508	70.2575	39.5508	70.3772	39.5508	70.7045	39.5508	70.8251	39.5508	71.173	39.5508	71.2857	39.5508	71.622	39.5508	71.7196	39.5508	72.0146	39.5508	72.0918	39.5508	72.3207	39.5508	72.374	39.5508	72.5187	39.5508	72.5458	39.5508	72.5953
41.0156	70.9081	41.0156	70.8961	41.0156	70.891	41.0156	70.8563	41.0156	70.8475	41.0156	70.7943	41.0156	70.7849	41.0156	70.7202	41.0156	70.7147	41.0156	70.6489	41.0156	70.6532	41.0156	70.6005	41.0156	70.6209	41.0156	70.5979	41.0156	70.6401	41.0156	70.6639	41.0156	70.7315	41.0156	70.816	41.0156	70.9086	41.0156	71.0599	41.0156	71.1732	41.0156	71.3865	41.0156	71.5123	41.0156	71.7722	41.0156	71.9006	41.0156	72.1838	41.0156	72.305	41.0156	72.5844	41.0156	72.69	41.0156	72.939	41.0156	73.0229	41.0156	73.2186	41.0156	73.2765	41.0156	73.4012	41.0156	73.4308	41.0156	73.4736
42.4805	71.8266	42.4805	71.813	42.4805	71.8144	42.4805	71.7749	42.4805	71.7789	42.4805	71.7175	42.4805	71.7265	42.4805	71.6504	42.4805	71.6678	42.4805	71.5877	42.4805	71.6171	42.4805	71.5477	42.4805	71.5924	42.4805	71.5516	42.4805	71.6138	42.4805	71.62	42.4805	71.6998	42.4805	71.7683	42.4805	71.8631	42.4805	72.0016	42.4805	72.1064	42.4805	72.3114	42.4805	72.4195	42.4805	72.6761	42.4805	72.7807	42.4805	73.0647	42.4805	73.1596	42.4805	73.4429	42.4805	73.5234	42.4805	73.7777	42.4805	73.8405	42.4805	74.0411	42.4805	74.084	42.4805	74.2121	42.4805	74.2339	42.4805	74.2779
43.9453	72.7375	43.9453	72.7267	43.9453	72.7252	43.9453	72.6943	43.9453	72.6919	43.9453	72.6453	43.9453	72.6429	43.9453	72.5884	43.9453	72.5874	43.9453	72.5361	43.9453	72.5385	43.9453	72.5045	43.9453	72.5123	43.9453	72.5117	43.9453	72.527	43.9453	72.5754	43.9453	72.5998	43.9453	72.7092	43.9453	72.7432	43.9453	72.9178	43.9453	72.9607	43.9453	73.1949	43.9453	73.2443	43.9453	73.5225	43.9453	73.5751	43.9453	73.874	43.9453	73.9257	43.9453	74.2185	43.9453	74.2653	43.9453	74.5252	43.9453	74.5635	43.9453	74.7673	43.9453	74.7944	43.9453	74.9241	43.9453	74.9381	43.9453	74.9826
45.4102	73.2773	45.4102	73.2801	45.4102	73.2599	45.4102	73.2693	45.4102	73.23	45.4102	73.2491	45.4102	73.1929	45.4102	73.227	45.4102	73.157	45.4102	73.2135	45.4102	73.1338	45.4102	73.2218	45.4102	73.137	45.4102	73.2665	45.4102	73.1815	45.4102	73.3613	45.4102	73.2807	45.4102	73.5158	45.4102	73.4433	45.4102	73.7326	45.4102	73.6706	45.4102	74.0053	45.4102	73.9546	45.4102	74.3177	45.4102	74.278	45.4102	74.6469	45.4102	74.6168	45.4102	74.9656	45.4102	74.9438	45.4102	75.2467	45.4102	75.2318	45.4102	75.4661	45.4102	75.4569	45.4102	75.6049	45.4102	75.6005	45.4102	75.6511
46.875	74.6775	46.875	74.6829	46.875	74.6558	46.875	74.6727	46.875	74.6196	46.875	74.6502	46.875	74.5732	46.875	74.6211	46.875	74.5236	46.875	74.594	46.875	74.4807	46.875	74.5797	46.875	74.4563	46.875	74.5907	46.875	74.464	46.875	74.6396	46.875	74.5169	46.875	74.7371	46.875	74.6252	46.875	74.8888	46.875	74.7934	46.875	75.0931	46.875	75.0173	46.875	75.3394	46.875	75.2839	46.875	75.6097	46.875	75.5725	46.875	75.8801	46.875	75.8575	46.875	76.1248	46.875	76.1126	46.875	76.3196	46.875	76.3139	46.875	76.4448	46.875	76.4427	46.875	76.4875
48.3398	75.2849	48.3398	75.2859	48.3398	75.271	48.3398	75.2746	48.3398	75.2457	48.3398	75.2541	48.3398	75.2129	48.3398	75.2298	48.3398	75.1789	48.3398	75.2095	48.3398	75.1523	48.3398	75.2033	48.3398	75.1437	48.3398	75.2225	48.3398	75.1648	48.3398	75.2785	48.3398	75.2271	48.3398	75.3806	48.3398	75.3393	48.3398	75.5336	48.3398	75.505	48.3398	75.7355	48.3398	75.7202	48.3398	75.9763	48.3398	75.973	48.3398	76.2388	48.3398	76.2446	48.3398	76.5006	48.3398	76.5116	48.3398	76.7376	48.3398	76.7499	48.3398	76.9268	48.3398	76.937	48.3398	77.0497	48.3398	77.0554	48.3398	77.0941
51.2695	76.6884	51.2695	76.6929	51.2695	76.6767	51.2695	76.6907	51.2695	76.6592	51.2695	76.6839	51.2695	76.6389	51.2695	76.6761	51.2695	76.6203	51.2695	76.6729	51.2695	76.6098	51.2695	76.681	51.2695	76.615	51.2695	76.7085	51.2695	76.6443	51.2695	76.7634	51.2695	76.7059	51.2695	76.8525	51.2695	76.8059	51.2695	76.9797	51.2695	76.9468	51.2695	77.1443	51.2695	77.1258	51.2695	77.3394	51.2695	77.3341	51.2695	77.5527	51.2695	77.5575	51.2695	77.7668	51.2695	77.7777	51.2695	77.9621	51.2695	77.975	51.2695	78.1195	51.2695	78.1304	51.2695	78.2226	51.2695	78.2288	51.2695	78.2605
52.7344	77.454	52.7344	77.4577	52.7344	77.4445	52.7344	77.4559	52.7344	77.4302	52.7344	77.4504	52.7344	77.4135	52.7344	77.4441	52.7344	77.3983	52.7344	77.4418	52.7344	77.3898	52.7344	77.4493	52.7344	77.3943	52.7344	77.4732	52.7344	77.4189	52.7344	77.5207	52.7344	77.4706	52.7344	77.5976	52.7344	77.5549	52.7344	77.7077	52.7344	77.6747	52.7344	77.8506	52.7344	77.8284	52.7344	78.021	52.7344	78.0093	52.7344	78.2083	52.7344	78.2055	52.7344	78.3977	52.7344	78.401	52.7344	78.5715	52.7344	78.5779	52.7344	78.7121	52.7344	78.7185	52.7344	78.8044	52.7344	78.8083	52.7344	78.8379
54.1992	78.104	54.1992	78.1083	54.1992	78.0948	54.1992	78.1079	54.1992	78.0817	54.1992	78.1043	54.1992	78.0667	54.1992	78.1001	54.1992	78.0533	54.1992	78.0992	54.1992	78.0457	54.1992	78.1066	54.1992	78.0495	54.1992	78.1283	54.1992	78.071	54.1992	78.1703	54.1992	78.1162	54.1992	78.2379	54.1992	78.1906	54.1992	78.3345	54.1992	78.2969	54.1992	78.4603	54.1992	78.4342	54.1992	78.6111	54.1992	78.5971	54.1992	78.7783	54.1992	78.7749	54.1992	78.9487	54.1992	78.953	54.1992	79.1065	54.1992	79.1146	54.1992	79.2352	54.1992	79.2433	54.1992	79.3204	54.1992	79.3253	54.1992	79.3518
55.6641	78.6285	55.6641	78.6341	55.6641	78.6202	55.6641	78.6374	55.6641	78.6102	55.6641	78.6393	55.6641	78.6	55.6641	78.642	55.6641	78.5924	55.6641	78.6486	55.6641	78.5908	55.6641	78.663	55.6641	78.5998	55.6641	78.69	55.6641	78.6244	55.6641	78.7345	55.6641	78.67	55.6641	78.8008	55.6641	78.7412	55.6641	78.892	55.6641	78.8406	55.6641	79.0084	55.6641	78.9676	55.6641	79.1466	55.6641	79.1175	55.6641	79.2993	55.6641	79.2811	55.6641	79.4548	55.6641	79.4454	55.6641	79.5987	55.6641	79.5952	55.6641	79.7157	55.6641	79.7153	55.6641	79.7924	55.6641	79.7928	55.6641	79.8193
58.5938	79.6507	58.5938	79.6515	58.5938	79.6507	58.5938	79.6532	58.5938	79.6519	58.5938	79.6566	58.5938	79.655	58.5938	79.6628	58.5938	79.6616	58.5938	79.6736	58.5938	79.6736	58.5938	79.6913	58.5938	79.6938	58.5938	79.7187	58.5938	79.7251	58.5938	79.7588	58.5938	79.7707	58.5938	79.8148	58.5938	79.8333	58.5938	79.889	58.5938	79.9147	58.5938	79.9821	58.5938	80.0144	58.5938	80.0923	58.5938	80.1294	58.5938	80.2145	58.5938	80.2535	58.5938	80.34	58.5938	80.3775	58.5938	80.4579	58.5938	80.4901	58.5938	80.5558	58.5938	80.5793	58.5938	80.6225	58.5938	80.6349	58.5938	80.65
60.0586	80.0686	60.0586	80.0706	60.0586	80.0686	60.0586	80.0748	60.0586	80.0711	60.0586	80.0813	60.0586	80.0766	60.0586	80.0911	60.0586	80.0861	60.0586	80.1051	60.0586	80.1012	60.0586	80.1252	60.0586	80.1236	60.0586	80.1533	60.0586	80.1558	60.0586	80.1919	60.0586	80.2001	60.0586	80.2435	60.0586	80.2589	60.0586	80.3104	60.0586	80.3336	60.0586	80.3933	60.0586	80.4242	60.0586	80.4911	60.0586	80.5283	60.0586	80.5997	60.0586	80.6405	60.0586	80.7122	60.0586	80.7526	60.0586	80.8187	60.0586	80.8543	60.0586	80.9081	60.0586	80.9347	60.0586	80.97	60.0586	80.9842	60.0586	80.9965
62.9883	80.9598	62.9883	80.961	62.9883	80.9624	62.9883	80.9661	62.9883	80.9691	62.9883	80.975	62.9883	80.9797	62.9883	80.9876	62.9883	80.9946	62.9883	81.004	62.9883	81.0138	62.9883	81.0247	62.9883	81.0381	62.9883	81.0504	62.9883	81.0684	62.9883	81.0825	62.9883	81.1057	62.9883	81.1226	62.9883	81.1515	62.9883	81.1723	62.9883	81.2068	62.9883	81.2328	62.9883	81.2719	62.9883	81.3036	62.9883	81.3456	62.9883	81.3826	62.9883	81.4248	62.9883	81.465	62.9883	81.5042	62.9883	81.5437	62.9883	81.5767	62.9883	81.6104	62.9883	81.6342	62.9883	81.657	62.9883	81.6695	62.9883	81.6775
64.4531	81.3151	64.4531	81.319	64.4531	81.3158	64.4531	81.3274	64.4531	81.3212	64.4531	81.3399	64.4531	81.3313	64.4531	81.3563	64.4531	81.3458	64.4531	81.3762	64.4531	81.3648	64.4531	81.3997	64.4531	81.3884	64.4531	81.4272	64.4531	81.417	64.4531	81.4594	64.4531	81.4514	64.4531	81.4974	64.4531	81.4924	64.4531	81.5426	64.4531	81.5411	64.4531	81.5958	64.4531	81.5977	64.4531	81.6567	64.4531	81.6617	64.4531	81.7236	64.4531	81.7307	64.4531	81.7924	64.4531	81.8005	64.4531	81.8575	64.4531	81.8651	64.4531	81.9117	64.4531	81.9176	64.4531	81.9483	64.4531	81.9515	64.4531	81.9622
67.3828	81.8322	67.3828	81.8339	67.3828	81.8374	67.3828	81.8425	67.3828	81.8493	67.3828	81.8575	67.3828	81.8673	67.3828	81.8779	67.3828	81.8904	67.3828	81.9029	67.3828	81.9176	67.3828	81.9314	67.3828	81.9479	67.3828	81.9628	67.3828	81.9805	67.3828	81.9966	67.3828	82.0153	67.3828	82.0328	67.3828	82.0525	67.3828	82.0719	67.3828	82.0925	67.3828	82.1144	67.3828	82.1357	67.3828	82.1604	67.3828	82.1823	67.3828	82.2094	67.3828	82.231	67.3828	82.2594	67.3828	82.2794	67.3828	82.3067	67.3828	82.3237	67.3828	82.3468	67.3828	82.3593	67.3828	82.3748	67.3828	82.3814	67.3828	82.3869
