"SPL Horizontal"
"On-Axis"		"10°"		"-10°"		"20°"		"-20°"		"30°"		"-30°"		"40°"		"-40°"		"50°"		"-50°"		"60°"		"-60°"		"70°"		"-70°"		"80°"		"-80°"		"90°"		"-90°"		"100°"		"-100°"		"110°"		"-110°"		"120°"		"-120°"		"130°"		"-130°"		"140°"		"-140°"		"150°"		"-150°"		"160°"		"-160°"		"170°"		"-170°"		"180°"
"Frequency / Hz"	"Sound Pressure Level / dB (re 20 µPa/V)  [2.83V at 1m]"	"Frequency / Hz"	"Sound Pressure Level / dB (re 20 µPa/V)  [2.83V at 1m]"	"Frequency / Hz"	"Sound Pressure Level / dB (re 20 µPa/V)  [2.83V at 1m]"	"Frequency / Hz"	"Sound Pressure Level / dB (re 20 µPa/V)  [2.83V at 1m]"	"Frequency / Hz"	"Sound Pressure Level / dB (re 20 µPa/V)  [2.83V at 1m]"	"Frequency / Hz"	"Sound Pressure Level / dB (re 20 µPa/V)  [2.83V at 1m]"	"Frequency / Hz"	"Sound Pressure Level / dB (re 20 µPa/V)  [2.83V at 1m]"	"Frequency / Hz"	"Sound Pressure Level / dB (re 20 µPa/V)  [2.83V at 1m]"	"Frequency / Hz"	"Sound Pressure Level / dB (re 20 µPa/V)  [2.83V at 1m]"	"Frequency / Hz"	"Sound Pressure Level / dB (re 20 µPa/V)  [2.83V at 1m]"	"Frequency / Hz"	"Sound Pressure Level / dB (re 20 µPa/V)  [2.83V at 1m]"	"Frequency / Hz"	"Sound Pressure Level / dB (re 20 µPa/V)  [2.83V at 1m]"	"Frequency / Hz"	"Sound Pressure Level / dB (re 20 µPa/V)  [2.83V at 1m]"	"Frequency / Hz"	"Sound Pressure Level / dB (re 20 µPa/V)  [2.83V at 1m]"	"Frequency / Hz"	"Sound Pressure Level / dB (re 20 µPa/V)  [2.83V at 1m]"	"Frequency / Hz"	"Sound Pressure Level / dB (re 20 µPa/V)  [2.83V at 1m]"	"Frequency / Hz"	"Sound Pressure Level / dB (re 20 µPa/V)  [2.83V at 1m]"	"Frequency / Hz"	"Sound Pressure Level / dB (re 20 µPa/V)  [2.83V at 1m]"	"Frequency / Hz"	"Sound Pressure Level / dB (re 20 µPa/V)  [2.83V at 1m]"	"Frequency / Hz"	"Sound Pressure Level / dB (re 20 µPa/V)  [2.83V at 1m]"	"Frequency / Hz"	"Sound Pressure Level / dB (re 20 µPa/V)  [2.83V at 1m]"	"Frequency / Hz"	"Sound Pressure Level / dB (re 20 µPa/V)  [2.83V at 1m]"	"Frequency / Hz"	"Sound Pressure Level / dB (re 20 µPa/V)  [2.83V at 1m]"	"Frequency / Hz"	"Sound Pressure Level / dB (re 20 µPa/V)  [2.83V at 1m]"	"Frequency / Hz"	"Sound Pressure Level / dB (re 20 µPa/V)  [2.83V at 1m]"	"Frequency / Hz"	"Sound Pressure Level / dB (re 20 µPa/V)  [2.83V at 1m]"	"Frequency / Hz"	"Sound Pressure Level / dB (re 20 µPa/V)  [2.83V at 1m]"	"Frequency / Hz"	"Sound Pressure Level / dB (re 20 µPa/V)  [2.83V at 1m]"	"Frequency / Hz"	"Sound Pressure Level / dB (re 20 µPa/V)  [2.83V at 1m]"	"Frequency / Hz"	"Sound Pressure Level / dB (re 20 µPa/V)  [2.83V at 1m]"	"Frequency / Hz"	"Sound Pressure Level / dB (re 20 µPa/V)  [2.83V at 1m]"	"Frequency / Hz"	"Sound Pressure Level / dB (re 20 µPa/V)  [2.83V at 1m]"	"Frequency / Hz"	"Sound Pressure Level / dB (re 20 µPa/V)  [2.83V at 1m]"	"Frequency / Hz"	"Sound Pressure Level / dB (re 20 µPa/V)  [2.83V at 1m]"	"Frequency / Hz"	"Sound Pressure Level / dB (re 20 µPa/V)  [2.83V at 1m]"	"Frequency / Hz"	"Sound Pressure Level / dB (re 20 µPa/V)  [2.83V at 1m]"
20.5078	62.6782	20.5078	62.6912	20.5078	62.6133	20.5078	62.6528	20.5078	62.4965	20.5078	62.5634	20.5078	62.3281	20.5078	62.4244	20.5078	62.1087	20.5078	62.237	20.5078	61.8396	20.5078	62.0035	20.5078	61.5229	20.5078	61.7265	20.5078	61.1623	20.5078	61.4094	20.5078	60.7635	20.5078	61.0565	20.5078	60.3349	20.5078	60.6734	20.5078	59.8884	20.5078	60.2674	20.5078	59.4395	20.5078	59.848	20.5078	59.0073	20.5078	59.4272	20.5078	58.6135	20.5078	59.0199	20.5078	58.2807	20.5078	58.6436	20.5078	58.0297	20.5078	58.318	20.5078	57.877	20.5078	58.0628	20.5078	57.8321	20.5078	57.8963
21.9727	63.7319	21.9727	63.7381	21.9727	63.6529	21.9727	63.6723	21.9727	63.5017	21.9727	63.5364	21.9727	63.2803	21.9727	63.3336	21.9727	62.9923	21.9727	63.0684	21.9727	62.6432	21.9727	62.7463	21.9727	62.2404	21.9727	62.3744	21.9727	61.7942	21.9727	61.9617	21.9727	61.3182	21.9727	61.5191	21.9727	60.8294	21.9727	61.0602	21.9727	60.3487	21.9727	60.601	21.9727	59.8984	21.9727	60.1591	21.9727	59.5001	21.9727	59.7526	21.9727	59.1703	21.9727	59.3975	21.9727	58.918	21.9727	59.1053	21.9727	58.744	21.9727	58.8815	21.9727	58.643	21.9727	58.7263	21.9727	58.6085	21.9727	58.6363
23.4375	63.1452	23.4375	63.1477	23.4375	63.0588	23.4375	63.0673	23.4375	62.8884	23.4375	62.9061	23.4375	62.6356	23.4375	62.6677	23.4375	62.3034	23.4375	62.3574	23.4375	61.8974	23.4375	61.9822	23.4375	61.4267	23.4375	61.5521	23.4375	60.9051	23.4375	61.0803	23.4375	60.3535	23.4375	60.5844	23.4375	59.7999	23.4375	60.0861	23.4375	59.279	23.4375	59.6103	23.4375	58.8271	23.4375	59.1829	23.4375	58.4735	23.4375	58.8253	23.4375	58.2317	23.4375	58.5494	23.4375	58.0948	23.4375	58.3545	23.4375	58.0392	23.4375	58.2275	23.4375	58.0354	23.4375	58.148	23.4375	58.0588	23.4375	58.096
24.9023	62.8198	24.9023	62.8151	24.9023	62.7409	24.9023	62.728	24.9023	62.579	24.9023	62.5618	24.9023	62.3371	24.9023	62.3217	24.9023	62.0213	24.9023	62.0156	24.9023	61.6413	24.9023	61.6545	24.9023	61.2125	24.9023	61.2535	24.9023	60.7572	24.9023	60.8323	24.9023	60.3048	24.9023	60.4158	24.9023	59.8911	24.9023	60.032	24.9023	59.5524	24.9023	59.7091	24.9023	59.3162	24.9023	59.4693	24.9023	59.192	24.9023	59.3227	24.9023	59.1669	24.9023	59.2632	24.9023	59.2101	24.9023	59.2704	24.9023	59.2836	24.9023	59.3147	24.9023	59.3529	24.9023	59.3656	24.9023	59.3943	24.9023	59.3974
26.3672	60.6906	26.3672	60.6272	26.3672	60.6128	26.3672	60.4222	26.3672	60.3926	26.3672	60.0737	26.3672	60.0282	26.3672	59.5784	26.3672	59.5172	26.3672	58.9322	26.3672	58.8593	26.3672	58.1327	26.3672	58.0595	26.3672	57.1834	26.3672	57.1366	26.3672	56.1053	26.3672	56.1375	26.3672	54.9588	26.3672	55.1584	26.3672	53.8779	26.3672	54.3572	26.3672	53.0857	26.3672	53.9118	26.3672	52.8057	26.3672	53.9044	26.3672	53.0709	26.3672	54.2449	26.3672	53.6831	26.3672	54.7432	26.3672	54.3899	26.3672	55.2268	26.3672	55.017	26.3672	55.5857	26.3672	55.4753	26.3672	55.7612	26.3672	55.7268
27.832	60.8697	27.832	60.8471	27.832	60.7934	27.832	60.7273	27.832	60.6199	27.832	60.5157	27.832	60.3558	27.832	60.2218	27.832	60.0145	27.832	59.8605	27.832	59.6182	27.832	59.4538	27.832	59.2012	27.832	59.0327	27.832	58.8107	27.832	58.6385	27.832	58.5022	27.832	58.3191	27.832	58.3272	27.832	58.1205	27.832	58.3139	27.832	58.0725	27.832	58.4535	27.832	58.1762	27.832	58.7035	27.832	58.4031	27.832	59.0047	27.832	58.7047	27.832	59.2991	27.832	59.0279	27.832	59.541	27.832	59.3255	27.832	59.6996	27.832	59.5613	27.832	59.7579	27.832	59.7102
29.2969	57.9167	29.2969	57.8764	29.2969	57.8583	29.2969	57.7391	29.2969	57.7092	29.2969	57.5169	29.2969	57.4904	29.2969	57.2338	29.2969	57.239	29.2969	56.9283	29.2969	57.0118	29.2969	56.6565	29.2969	56.881	29.2969	56.4872	29.2969	56.9176	29.2969	56.4867	29.2969	57.1624	29.2969	56.6943	29.2969	57.6038	29.2969	57.1024	29.2969	58.1835	29.2969	57.6609	29.2969	58.824	29.2969	58.2999	29.2969	59.4538	29.2969	58.9526	29.2969	60.0196	29.2969	59.5666	29.2969	60.4858	29.2969	60.1051	29.2969	60.8314	29.2969	60.5434	29.2969	61.0448	29.2969	60.8653	29.2969	61.1211	29.2969	61.0601
30.7617	53.8443	30.7617	53.7657	30.7617	53.8586	30.7617	53.6281	30.7617	53.8399	30.7617	53.4741	30.7617	53.8555	30.7617	53.3841	30.7617	54.0001	30.7617	53.4646	30.7617	54.3656	30.7617	53.8091	30.7617	54.9936	30.7617	54.4464	30.7617	55.8489	30.7617	55.3222	30.7617	56.8421	30.7617	56.3348	30.7617	57.8754	30.7617	57.3851	30.7617	58.8722	30.7617	58.4007	30.7617	59.7827	30.7617	59.3373	30.7617	60.5781	30.7617	60.1695	30.7617	61.2426	30.7617	60.8836	30.7617	61.7682	30.7617	61.472	30.7617	62.1511	30.7617	61.9297	30.7617	62.3902	30.7617	62.2532	30.7617	62.4859	30.7617	62.4395
32.2266	52.2628	32.2266	52.2117	32.2266	52.539	32.2266	52.3937	32.2266	53.0392	32.2266	52.82	32.2266	53.7563	32.2266	53.4854	32.2266	54.6611	32.2266	54.3539	32.2266	55.7	32.2266	55.3635	32.2266	56.808	32.2266	56.4441	32.2266	57.9245	32.2266	57.5354	32.2266	59.002	32.2266	58.5929	32.2266	60.0077	32.2266	59.5872	32.2266	60.9207	32.2266	60.5003	32.2266	61.7281	32.2266	61.3213	32.2266	62.4218	32.2266	62.0432	32.2266	62.9968	32.2266	62.6613	32.2266	63.4499	32.2266	63.1716	32.2266	63.779	32.2266	63.5703	32.2266	63.9833	32.2266	63.8539	32.2266	64.0629	32.2266	64.0191
33.6914	56.5313	33.6914	56.5331	33.6914	56.7435	33.6914	56.746	33.6914	57.1526	33.6914	57.1486	33.6914	57.7262	33.6914	57.7056	33.6914	58.4225	33.6914	58.3755	33.6914	59.198	33.6914	59.117	33.6914	60.0123	33.6914	59.8935	33.6914	60.8314	33.6914	60.6754	33.6914	61.6282	33.6914	61.4391	33.6914	62.3818	33.6914	62.1672	33.6914	63.0767	33.6914	62.8463	33.6914	63.7009	33.6914	63.4661	33.6914	64.2456	33.6914	64.0183	33.6914	64.7035	33.6914	64.4961	33.6914	65.0692	33.6914	64.8934	33.6914	65.3387	33.6914	65.2048	33.6914	65.5095	33.6914	65.4256	33.6914	65.5803	33.6914	65.5518
35.1562	61.1125	35.1562	61.1135	35.1562	61.231	35.1562	61.2323	35.1562	61.4635	35.1562	61.4602	35.1562	61.7974	35.1562	61.7827	35.1562	62.2152	35.1562	62.1821	35.1562	62.6963	35.1562	62.639	35.1562	63.219	35.1562	63.1341	35.1562	63.7626	35.1562	63.6496	35.1562	64.3082	35.1562	64.1694	35.1562	64.8392	35.1562	64.6796	35.1562	65.3412	35.1562	65.1679	35.1562	65.8023	35.1562	65.6237	35.1562	66.2122	35.1562	66.0379	35.1562	66.5622	35.1562	66.402	35.1562	66.8454	35.1562	66.7087	35.1562	67.056	35.1562	66.9515	35.1562	67.1904	35.1562	67.1248	35.1562	67.2466	35.1562	67.2242
36.6211	64.7634	36.6211	64.7639	36.6211	64.816	36.6211	64.8158	36.6211	64.9219	36.6211	64.9159	36.6211	65.0794	36.6211	65.0601	36.6211	65.2841	36.6211	65.2433	36.6211	65.53	36.6211	65.4599	36.6211	65.8085	36.6211	65.7035	36.6211	66.1099	36.6211	65.9674	36.6211	66.4235	36.6211	66.2445	36.6211	66.7385	36.6211	66.5276	36.6211	67.044	36.6211	66.8096	36.6211	67.3299	36.6211	67.0832	36.6211	67.5867	36.6211	67.3413	36.6211	67.8064	36.6211	67.5771	36.6211	67.9819	36.6211	67.7838	36.6211	68.1081	36.6211	67.9551	36.6211	68.1818	36.6211	68.0851	36.6211	68.2017	36.6211	68.1686
38.0859	66.9107	38.0859	66.929	38.0859	66.9522	38.0859	67.0048	38.0859	67.0537	38.0859	67.1335	38.0859	67.2122	38.0859	67.3092	38.0859	67.4223	38.0859	67.5251	38.0859	67.6762	38.0859	67.7736	38.0859	67.9643	38.0859	68.0472	38.0859	68.276	38.0859	68.338	38.0859	68.6005	38.0859	68.6385	38.0859	68.9271	38.0859	68.9409	38.0859	69.2456	38.0859	69.2377	38.0859	69.5465	38.0859	69.5213	38.0859	69.8211	38.0859	69.7844	38.0859	70.0615	38.0859	70.0197	38.0859	70.2607	38.0859	70.2201	38.0859	70.4129	38.0859	70.3793	38.0859	70.5139	38.0859	70.4918	38.0859	70.561	38.0859	70.5533
39.5508	69.745	39.5508	69.7507	39.5508	69.7822	39.5508	69.7983	39.5508	69.8617	39.5508	69.8857	39.5508	69.9817	39.5508	70.0101	39.5508	70.1387	39.5508	70.1675	39.5508	70.3277	39.5508	70.3534	39.5508	70.5426	39.5508	70.5623	39.5508	70.7762	39.5508	70.7884	39.5508	71.0211	39.5508	71.0254	39.5508	71.2695	39.5508	71.2668	39.5508	71.5139	39.5508	71.5055	39.5508	71.747	39.5508	71.7348	39.5508	71.9619	39.5508	71.9479	39.5508	72.1522	39.5508	72.1381	39.5508	72.312	39.5508	72.2994	39.5508	72.4362	39.5508	72.4262	39.5508	72.5206	39.5508	72.5142	39.5508	72.5624	39.5508	72.5602
41.0156	71.7483	41.0156	71.7394	41.0156	71.7855	41.0156	71.7589	41.0156	71.8498	41.0156	71.8062	41.0156	71.9394	41.0156	71.8794	41.0156	72.0516	41.0156	71.9763	41.0156	72.1828	41.0156	72.0937	41.0156	72.3294	41.0156	72.2279	41.0156	72.4869	41.0156	72.375	41.0156	72.6507	41.0156	72.531	41.0156	72.8161	41.0156	72.6914	41.0156	72.9782	41.0156	72.8522	41.0156	73.1322	41.0156	73.0089	41.0156	73.2732	41.0156	73.1572	41.0156	73.3965	41.0156	73.2925	41.0156	73.4978	41.0156	73.4107	41.0156	73.5735	41.0156	73.5076	41.0156	73.6206	41.0156	73.5795	41.0156	73.6374	41.0156	73.6234
42.4805	73.3834	42.4805	73.3732	42.4805	73.4117	42.4805	73.3812	42.4805	73.4574	42.4805	73.4073	42.4805	73.5192	42.4805	73.4505	42.4805	73.5952	42.4805	73.5094	42.4805	73.6834	42.4805	73.5823	42.4805	73.7812	42.4805	73.6669	42.4805	73.8856	42.4805	73.7608	42.4805	73.9938	42.4805	73.8615	42.4805	74.1025	42.4805	73.9662	42.4805	74.2085	42.4805	74.0722	42.4805	74.3086	42.4805	74.1766	42.4805	74.3996	42.4805	74.2764	42.4805	74.4783	42.4805	74.3688	42.4805	74.542	42.4805	74.4507	42.4805	74.588	42.4805	74.5193	42.4805	74.6146	42.4805	74.5719	42.4805	74.6207	42.4805	74.6062
43.9453	74.7259	43.9453	74.7152	43.9453	74.7482	43.9453	74.7164	43.9453	74.7813	43.9453	74.7294	43.9453	74.8243	43.9453	74.7541	43.9453	74.8761	43.9453	74.7897	43.9453	74.9352	43.9453	74.8351	43.9453	75.0001	43.9453	74.8891	43.9453	75.069	43.9453	74.9501	43.9453	75.14	43.9453	75.0163	43.9453	75.2112	43.9453	75.0859	43.9453	75.2805	43.9453	75.157	43.9453	75.3459	43.9453	75.2277	43.9453	75.4051	43.9453	75.2959	43.9453	75.456	43.9453	75.3597	43.9453	75.4967	43.9453	75.417	43.9453	75.5255	43.9453	75.4657	43.9453	75.541	43.9453	75.5039	43.9453	75.5424	43.9453	75.5299
45.4102	75.9033	45.4102	75.8921	45.4102	75.9204	45.4102	75.8871	45.4102	75.9429	45.4102	75.8885	45.4102	75.9704	45.4102	75.8964	45.4102	76.0021	45.4102	75.9107	45.4102	76.0374	45.4102	75.9309	45.4102	76.0754	45.4102	75.9566	45.4102	76.115	45.4102	75.9868	45.4102	76.155	45.4102	76.0208	45.4102	76.1943	45.4102	76.0575	45.4102	76.2314	45.4102	76.0959	45.4102	76.2652	45.4102	76.135	45.4102	76.2943	45.4102	76.1738	45.4102	76.3176	45.4102	76.2112	45.4102	76.3343	45.4102	76.2462	45.4102	76.3435	45.4102	76.2775	45.4102	76.345	45.4102	76.3041	45.4102	76.3386	45.4102	76.3248
46.875	76.9949	46.875	76.985	46.875	77.0049	46.875	76.9758	46.875	77.0148	46.875	76.9677	46.875	77.0243	46.875	76.961	46.875	77.0333	46.875	76.9562	46.875	77.0416	46.875	76.9534	46.875	77.0492	46.875	76.9527	46.875	77.0558	46.875	76.954	46.875	77.0612	46.875	76.9569	46.875	77.0653	46.875	76.9614	46.875	77.0679	46.875	76.967	46.875	77.0686	46.875	76.9736	46.875	77.0675	46.875	76.9811	46.875	77.0645	46.875	76.9894	46.875	77.0597	46.875	76.9983	46.875	77.0533	46.875	77.0077	46.875	77.0455	46.875	77.0174	46.875	77.0367	46.875	77.0272
48.3398	77.9217	48.3398	77.905	48.3398	77.934	48.3398	77.8846	48.3398	77.941	48.3398	77.8615	48.3398	77.9424	48.3398	77.8369	48.3398	77.938	48.3398	77.8114	48.3398	77.9279	48.3398	77.7859	48.3398	77.9123	48.3398	77.7608	48.3398	77.8917	48.3398	77.7365	48.3398	77.8669	48.3398	77.7132	48.3398	77.8385	48.3398	77.6911	48.3398	77.8075	48.3398	77.6704	48.3398	77.7751	48.3398	77.6515	48.3398	77.7424	48.3398	77.6349	48.3398	77.7107	48.3398	77.6211	48.3398	77.6814	48.3398	77.6109	48.3398	77.6557	48.3398	77.605	48.3398	77.6346	48.3398	77.604	48.3398	77.6187	48.3398	77.6085
51.2695	78.9324	51.2695	78.9173	51.2695	78.942	51.2695	78.8972	51.2695	78.9455	51.2695	78.873	51.2695	78.9425	51.2695	78.8456	51.2695	78.9328	51.2695	78.8156	51.2695	78.9163	51.2695	78.7837	51.2695	78.8933	51.2695	78.7504	51.2695	78.8642	51.2695	78.7163	51.2695	78.8295	51.2695	78.6816	51.2695	78.7901	51.2695	78.6468	51.2695	78.7471	51.2695	78.6125	51.2695	78.702	51.2695	78.5795	51.2695	78.6565	51.2695	78.5489	51.2695	78.6125	51.2695	78.5219	51.2695	78.572	51.2695	78.5	51.2695	78.5368	51.2695	78.4847	51.2695	78.5088	51.2695	78.4772	51.2695	78.4891	51.2695	78.4785
52.7344	79.3467	52.7344	79.3321	52.7344	79.3536	52.7344	79.3106	52.7344	79.3525	52.7344	79.2829	52.7344	79.3432	52.7344	79.2499	52.7344	79.3257	52.7344	79.2125	52.7344	79.3003	52.7344	79.1716	52.7344	79.2675	52.7344	79.128	52.7344	79.2279	52.7344	79.0825	52.7344	79.1824	52.7344	79.0359	52.7344	79.1321	52.7344	78.989	52.7344	79.0783	52.7344	78.9427	52.7344	79.0228	52.7344	78.8983	52.7344	78.9674	52.7344	78.857	52.7344	78.9144	52.7344	78.8207	52.7344	78.8659	52.7344	78.791	52.7344	78.8243	52.7344	78.7697	52.7344	78.7915	52.7344	78.7584	52.7344	78.7691	52.7344	78.758
54.1992	79.721	54.1992	79.7089	54.1992	79.723	54.1992	79.6874	54.1992	79.7148	54.1992	79.6571	54.1992	79.6964	54.1992	79.6193	54.1992	79.6685	54.1992	79.5749	54.1992	79.6317	54.1992	79.5253	54.1992	79.5869	54.1992	79.4717	54.1992	79.5353	54.1992	79.4151	54.1992	79.4779	54.1992	79.3566	54.1992	79.4162	54.1992	79.2975	54.1992	79.3517	54.1992	79.2389	54.1992	79.2862	54.1992	79.1824	54.1992	79.2218	54.1992	79.1297	54.1992	79.161	54.1992	79.0827	54.1992	79.1062	54.1992	79.0436	54.1992	79.06	54.1992	79.0144	54.1992	79.0246	54.1992	78.9969	54.1992	79.0017	54.1992	78.9924
55.6641	80.0722	55.6641	80.0586	55.6641	80.0722	55.6641	80.0322	55.6641	80.0586	55.6641	79.9939	55.6641	80.0315	55.6641	79.9452	55.6641	79.9918	55.6641	79.8875	55.6641	79.9404	55.6641	79.8226	55.6641	79.8789	55.6641	79.7519	55.6641	79.8087	55.6641	79.677	55.6641	79.7317	55.6641	79.5995	55.6641	79.6497	55.6641	79.521	55.6641	79.5648	55.6641	79.4431	55.6641	79.4794	55.6641	79.3679	55.6641	79.3963	55.6641	79.2975	55.6641	79.3183	55.6641	79.2346	55.6641	79.2486	55.6641	79.1819	55.6641	79.1905	55.6641	79.1419	55.6641	79.1465	55.6641	79.1171	55.6641	79.119	55.6641	79.1092
58.5938	80.4515	58.5938	80.4343	58.5938	80.4526	58.5938	80.402	58.5938	80.4373	58.5938	80.3558	58.5938	80.4058	58.5938	80.2972	58.5938	80.3588	58.5938	80.2281	58.5938	80.2975	58.5938	80.1504	58.5938	80.2233	58.5938	80.0657	58.5938	80.1381	58.5938	79.9759	58.5938	80.044	58.5938	79.8828	58.5938	79.9434	58.5938	79.7882	58.5938	79.8389	58.5938	79.694	58.5938	79.7336	58.5938	79.6026	58.5938	79.631	58.5938	79.5168	58.5938	79.5349	58.5938	79.4395	58.5938	79.4492	58.5938	79.374	58.5938	79.3779	58.5938	79.3239	58.5938	79.3246	58.5938	79.2921	58.5938	79.2918	58.5938	79.281
60.0586	80.5603	60.0586	80.5406	60.0586	80.5625	60.0586	80.5044	60.0586	80.547	60.0586	80.4532	60.0586	80.5141	60.0586	80.3889	60.0586	80.4645	60.0586	80.3134	60.0586	80.3996	60.0586	80.229	60.0586	80.3213	60.0586	80.1378	60.0586	80.2316	60.0586	80.0419	60.0586	80.1329	60.0586	79.9433	60.0586	80.0278	60.0586	79.844	60.0586	79.919	60.0586	79.7461	60.0586	79.8096	60.0586	79.652	60.0586	79.703	60.0586	79.5645	60.0586	79.6032	60.0586	79.4865	60.0586	79.514	60.0586	79.4213	60.0586	79.4393	60.0586	79.3722	60.0586	79.3827	60.0586	79.3421	60.0586	79.3469	60.0586	79.3333
62.9883	80.7635	62.9883	80.734	62.9883	80.7708	62.9883	80.6835	62.9883	80.7555	62.9883	80.6135	62.9883	80.718	62.9883	80.5262	62.9883	80.6592	62.9883	80.4244	62.9883	80.5807	62.9883	80.3108	62.9883	80.4846	62.9883	80.1884	62.9883	80.3732	62.9883	80.0604	62.9883	80.2496	62.9883	79.9298	62.9883	80.1169	62.9883	79.7999	62.9883	79.9786	62.9883	79.6737	62.9883	79.8387	62.9883	79.5547	62.9883	79.7015	62.9883	79.4465	62.9883	79.5716	62.9883	79.3529	62.9883	79.4541	62.9883	79.2776	62.9883	79.3537	62.9883	79.2242	62.9883	79.2749	62.9883	79.1958	62.9883	79.2211	62.9883	79.1945
64.4531	81.3015	64.4531	81.2836	64.4531	81.2956	64.4531	81.2428	64.4531	81.2658	64.4531	81.1802	64.4531	81.2124	64.4531	81.0975	64.4531	81.1363	64.4531	80.9968	64.4531	81.0386	64.4531	80.8803	64.4531	80.9212	64.4531	80.7503	64.4531	80.7864	64.4531	80.6096	64.4531	80.6369	64.4531	80.4609	64.4531	80.4763	64.4531	80.3073	64.4531	80.3088	64.4531	80.1523	64.4531	80.1396	64.4531	80.0002	64.4531	79.9746	64.4531	79.8556	64.4531	79.8205	64.4531	79.7237	64.4531	79.6843	64.4531	79.6103	64.4531	79.5728	64.4531	79.5211	64.4531	79.4918	64.4531	79.4614	64.4531	79.4453	64.4531	79.4352
67.3828	81.4634	67.3828	81.4499	67.3828	81.4551	67.3828	81.4154	67.3828	81.4248	67.3828	81.3611	67.3828	81.3727	67.3828	81.2884	67.3828	81.2992	67.3828	81.1989	67.3828	81.2056	67.3828	81.0943	67.3828	81.0931	67.3828	80.9765	67.3828	80.9637	67.3828	80.8473	67.3828	80.8199	67.3828	80.7088	67.3828	80.6647	67.3828	80.5636	67.3828	80.5023	67.3828	80.4147	67.3828	80.3378	67.3828	80.2659	67.3828	80.1772	67.3828	80.1217	67.3828	80.0275	67.3828	79.9875	67.3828	79.896	67.3828	79.8695	67.3828	79.7898	67.3828	79.774	67.3828	79.7148	67.3828	79.7067	67.3828	79.6752	67.3828	79.6728
